File: Example_Data/25SC_s1_0010.003.dat
#F C:\frames\spec\25SC_s1_0010.003
#C title =s:10 frm:3 25SC_s1
#C wavelength =0.15406

#S 1  fr_average C:\frames\spec\25SC_s1_0010.003 C:\win32app\speccom\mask.axs chi 0 180 0 360 0.02
#C 2 theta =0.000000 to 180 deg
#C   q   =0.000000 to 81.568 nm^-1
#C  chi  =0.000000 to 360 deg
#C collumns:
#C  1 position (2theta or chi in degrees)
#C  2 average intensity (sum of all counts in the region divided with number of pixels)
#C  3 Number of pixels in region)
#C  4 error (sum of sqrt(intensity) for all pixels divided by number)
#N 4
#L TTh  Int  N_pix  Err
32.99 	0.065574 	61 	0.065574
33.03 	0.061826 	1391 	0.061405
33.07 	0.069756 	2050 	0.068327
33.11 	0.054672 	2579 	0.053991
33.15 	0.059687 	2999 	0.057929
33.19 	0.058648 	3342 	0.057567
33.23 	0.053080 	3523 	0.051916
33.27 	0.063912 	3630 	0.062944
33.31 	0.055738 	3660 	0.054137
33.35 	0.052788 	3694 	0.052471
33.39 	0.057388 	3729 	0.056760
33.43 	0.056900 	3761 	0.055654
33.47 	0.062138 	3798 	0.060750
33.51 	0.063434 	3815 	0.062359
33.55 	0.059589 	3843 	0.058522
33.59 	0.060309 	3880 	0.059705
33.63 	0.067109 	3919 	0.065913
33.67 	0.059686 	3954 	0.058797
33.71 	0.062893 	3975 	0.061567
33.75 	0.060515 	3999 	0.059343
33.79 	0.059886 	4041 	0.058244
33.83 	0.064198 	4050 	0.062751
33.87 	0.069813 	4111 	0.067960
33.91 	0.056881 	4149 	0.056034
33.95 	0.062664 	4181 	0.061824
33.99 	0.057857 	4200 	0.056462
34.03 	0.057257 	4244 	0.056291
34.07 	0.057873 	4268 	0.056912
34.11 	0.061599 	4302 	0.059807
34.15 	0.064188 	4331 	0.063242
34.19 	0.061210 	4362 	0.059599
34.23 	0.058047 	4393 	0.057092
34.27 	0.055405 	4422 	0.055007
34.31 	0.057649 	4458 	0.057124
34.35 	0.064451 	4484 	0.063145
34.39 	0.062639 	4502 	0.061728
34.43 	0.063450 	4539 	0.062418
34.47 	0.056402 	4592 	0.056147
34.51 	0.060356 	4606 	0.059466
34.55 	0.064183 	4643 	0.062669
34.59 	0.056257 	4675 	0.055380
34.63 	0.060510 	4710 	0.059494
34.67 	0.063700 	4741 	0.062464
34.71 	0.059169 	4766 	0.058677
34.75 	0.052413 	4808 	0.051560
34.79 	0.059080 	4824 	0.057724
34.83 	0.063554 	4862 	0.062711
34.87 	0.061832 	4868 	0.060509
34.91 	0.056944 	4882 	0.056464
34.95 	0.054397 	4890 	0.053199
34.99 	0.059424 	4897 	0.058587
35.03 	0.062715 	4943 	0.061767
35.07 	0.059919 	4940 	0.059563
35.11 	0.060441 	4947 	0.058546
35.15 	0.054284 	4937 	0.053809
35.19 	0.057264 	4942 	0.056553
35.23 	0.067341 	4945 	0.066748
35.27 	0.058812 	4948 	0.057746
35.31 	0.054733 	4933 	0.054140
35.35 	0.064144 	4942 	0.062248
35.39 	0.057027 	4945 	0.055843
35.43 	0.060815 	4933 	0.059865
35.47 	0.062868 	4931 	0.061660
35.51 	0.065570 	4926 	0.064500
35.55 	0.058443 	4945 	0.057495
35.59 	0.061678 	4945 	0.060119
35.63 	0.060085 	4943 	0.058900
35.67 	0.061918 	4942 	0.060713
35.71 	0.057525 	4937 	0.056694
35.75 	0.065098 	4931 	0.063534
35.79 	0.057583 	4932 	0.055901
35.83 	0.056814 	4946 	0.055965
35.87 	0.056267 	4923 	0.055672
35.91 	0.060889 	4927 	0.059581
35.95 	0.059182 	4917 	0.057733
35.99 	0.057906 	4939 	0.056720
36.03 	0.056646 	4943 	0.055441
36.07 	0.061753 	4939 	0.060567
36.11 	0.065733 	4929 	0.064525
36.15 	0.065195 	4939 	0.063990
36.19 	0.053846 	4940 	0.052641
36.23 	0.059372 	4935 	0.058778
36.27 	0.058680 	4925 	0.057610
36.31 	0.061485 	4928 	0.061010
36.35 	0.055386 	4929 	0.054317
36.39 	0.057305 	4921 	0.056353
36.43 	0.057021 	4928 	0.055951
36.47 	0.058955 	4936 	0.057768
36.51 	0.054531 	4933 	0.053818
36.55 	0.059874 	4927 	0.058566
36.59 	0.061146 	4939 	0.060079
36.63 	0.061448 	4931 	0.059646
36.67 	0.055172 	4930 	0.054459
36.71 	0.057509 	4921 	0.056556
36.75 	0.060073 	4944 	0.059006
36.79 	0.060963 	4921 	0.060011
36.83 	0.052899 	4915 	0.051827
36.87 	0.056432 	4944 	0.055958
36.91 	0.055050 	4941 	0.054101
36.95 	0.052504 	4933 	0.051672
36.99 	0.063627 	4935 	0.062321
37.03 	0.058895 	4924 	0.058062
37.07 	0.055117 	4935 	0.054404
37.11 	0.062614 	4935 	0.061071
37.15 	0.059279 	4909 	0.058444
37.19 	0.052386 	4925 	0.051672
37.23 	0.058967 	4918 	0.058491
37.27 	0.057622 	4894 	0.056066
37.31 	0.055319 	4935 	0.054251
37.35 	0.054070 	4938 	0.053003
37.39 	0.053336 	4931 	0.052742
37.43 	0.052311 	4932 	0.051599
37.47 	0.059038 	4929 	0.058206
37.51 	0.056152 	4933 	0.055677
37.55 	0.057809 	4930 	0.056740
37.59 	0.056358 	4915 	0.055166
37.63 	0.054483 	4919 	0.053411
37.67 	0.047512 	4904 	0.047034
37.71 	0.059647 	4929 	0.059290
37.75 	0.054453 	4940 	0.053149
37.79 	0.051521 	4930 	0.050432
37.83 	0.049390 	4920 	0.048557
37.87 	0.056894 	4939 	0.056064
37.91 	0.056389 	4930 	0.055419
37.95 	0.048161 	4921 	0.047566
37.99 	0.053746 	4912 	0.052911
38.03 	0.058260 	4909 	0.056828
38.07 	0.052149 	4909 	0.050956
38.11 	0.052482 	4935 	0.051533
38.15 	0.053884 	4918 	0.053169
38.19 	0.053144 	4930 	0.052312
38.23 	0.057108 	4938 	0.055922
38.27 	0.055578 	4930 	0.054746
38.31 	0.055612 	4927 	0.054542
38.35 	0.062703 	4928 	0.061871
38.39 	0.056427 	4909 	0.055711
38.43 	0.066721 	4916 	0.065053
38.47 	0.062156 	4907 	0.061440
38.51 	0.062044 	4932 	0.060619
38.55 	0.058955 	4936 	0.058361
38.59 	0.060926 	4924 	0.059736
38.63 	0.057067 	4924 	0.056116
38.67 	0.058943 	4937 	0.058468
38.71 	0.059911 	4924 	0.059554
38.75 	0.056018 	4927 	0.055186
38.79 	0.053709 	4934 	0.051909
38.83 	0.051230 	4919 	0.050634
38.87 	0.051313 	4911 	0.049882
38.91 	0.052009 	4903 	0.051053
38.95 	0.056934 	4918 	0.055504
38.99 	0.052664 	4937 	0.051714
39.03 	0.050466 	4934 	0.049754
39.07 	0.051584 	4924 	0.051108
39.11 	0.051511 	4931 	0.050204
39.15 	0.049644 	4915 	0.048294
39.19 	0.052268 	4917 	0.051434
39.23 	0.046701 	4925 	0.046106
39.27 	0.048880 	4910 	0.048522
39.31 	0.041769 	4884 	0.041289
39.35 	0.043566 	4935 	0.043329
39.39 	0.048489 	4929 	0.047775
39.43 	0.045611 	4933 	0.045255
39.47 	0.051391 	4923 	0.050063
39.51 	0.048335 	4924 	0.047859
39.55 	0.049807 	4919 	0.049569
39.59 	0.050692 	4912 	0.049857
39.63 	0.044697 	4922 	0.044221
39.67 	0.052717 	4913 	0.052121
39.71 	0.046987 	4895 	0.046269
39.75 	0.049919 	4928 	0.049324
39.79 	0.054405 	4926 	0.053553
39.83 	0.048439 	4934 	0.047015
39.87 	0.048122 	4925 	0.047527
39.91 	0.048557 	4922 	0.047586
39.95 	0.044151 	4915 	0.043674
39.99 	0.047242 	4932 	0.046649
40.03 	0.042208 	4928 	0.041851
40.07 	0.051188 	4923 	0.051069
40.11 	0.049227 	4916 	0.048492
40.15 	0.046611 	4913 	0.046015
40.19 	0.048286 	4929 	0.047573
40.23 	0.049270 	4932 	0.048914
40.27 	0.045372 	4937 	0.045016
40.31 	0.043531 	4939 	0.043412
40.35 	0.048790 	4919 	0.047838
40.39 	0.047860 	4931 	0.047366
40.43 	0.050589 	4922 	0.049875
40.47 	0.047580 	4918 	0.046747
40.51 	0.040837 	4922 	0.040242
40.55 	0.045029 	4908 	0.044432
40.59 	0.041523 	4937 	0.040930
40.63 	0.046450 	4930 	0.045975
40.67 	0.049473 	4932 	0.048641
40.71 	0.044201 	4932 	0.043251
40.75 	0.045427 	4931 	0.044952
40.79 	0.043461 	4924 	0.042747
40.83 	0.049513 	4928 	0.048800
40.87 	0.041802 	4928 	0.041564
40.91 	0.046110 	4923 	0.045039
40.95 	0.049868 	4913 	0.049629
40.99 	0.040617 	4924 	0.040142
41.03 	0.052599 	4905 	0.051763
41.07 	0.045233 	4930 	0.044639
41.11 	0.046606 	4935 	0.046349
41.15 	0.049990 	4941 	0.049041
41.19 	0.047465 	4930 	0.046989
41.23 	0.044746 	4939 	0.044015
41.27 	0.043399 	4931 	0.042686
41.31 	0.042773 	4933 	0.042298
41.35 	0.040097 	4938 	0.039267
41.39 	0.042976 	4933 	0.042501
41.43 	0.045445 	4929 	0.045089
41.47 	0.045270 	4926 	0.044319
41.51 	0.047773 	4940 	0.047180
41.55 	0.041135 	4935 	0.040522
41.59 	0.043179 	4933 	0.042347
41.63 	0.041717 	4938 	0.041243
41.67 	0.046356 	4940 	0.045763
41.71 	0.050263 	4934 	0.049789
41.75 	0.045648 	4929 	0.044697
41.79 	0.042273 	4944 	0.041681
41.83 	0.037744 	4928 	0.037387
41.87 	0.042958 	4935 	0.042602
41.91 	0.046799 	4936 	0.046206
41.95 	0.046644 	4931 	0.046168
41.99 	0.041386 	4905 	0.040909
42.03 	0.047783 	4939 	0.046953
42.07 	0.044764 	4937 	0.043933
42.11 	0.047118 	4945 	0.046526
42.15 	0.046983 	4938 	0.046508
42.19 	0.043602 	4908 	0.043244
42.23 	0.045789 	4892 	0.045310
42.27 	0.044932 	4874 	0.044692
42.31 	0.042636 	4855 	0.041913
42.35 	0.044440 	4838 	0.044198
42.39 	0.042673 	4804 	0.042185
42.43 	0.034432 	4792 	0.033943
42.47 	0.048059 	4765 	0.047444
42.51 	0.037107 	4743 	0.036860
42.55 	0.043755 	4708 	0.043258
42.59 	0.040601 	4729 	0.039981
42.63 	0.043958 	4709 	0.042839
42.67 	0.043339 	4684 	0.042589
42.71 	0.038602 	4663 	0.038225
42.75 	0.039853 	4617 	0.039345
42.79 	0.036447 	4582 	0.036063
42.83 	0.040123 	4536 	0.039736
42.87 	0.044899 	4499 	0.044769
42.91 	0.046005 	4456 	0.045217
42.95 	0.047101 	4416 	0.046703
42.99 	0.040365 	4385 	0.039697
43.03 	0.040157 	4333 	0.039729
43.07 	0.042132 	4296 	0.041723
43.11 	0.038543 	4255 	0.038405
43.15 	0.038754 	4206 	0.038197
43.19 	0.039819 	4194 	0.039539
43.23 	0.043091 	4154 	0.042668
43.27 	0.038246 	4105 	0.037961
43.31 	0.041187 	4079 	0.041043
43.35 	0.046131 	4032 	0.045259
43.39 	0.044978 	4002 	0.044685
43.43 	0.041919 	3960 	0.041327
43.47 	0.046162 	3921 	0.045714
43.51 	0.044364 	3877 	0.044062
43.55 	0.041835 	2964 	0.041638
43.59 	0.039519 	1746 	0.038848
43.63 	0.042957 	1001 	0.042957
43.67 	0.031873 	502 	0.031873
43.71 	0.029289 	239 	0.029289
43.75 	0.062500 	16 	0.062500