File: Example_Data/25SC_s1_0047.002.dat
#F C:\frames\spec\25SC_s1_0047.002
#C title =s:47 frm:2 25SC_s1
#C wavelength =0.15406

#S 1  fr_average C:\frames\spec\25SC_s1_0047.002 C:\win32app\speccom\mask.axs chi 0 180 0 360 0.02
#C 2 theta =0.000000 to 180 deg
#C   q   =0.000000 to 81.568 nm^-1
#C  chi  =0.000000 to 360 deg
#C collumns:
#C  1 position (2theta or chi in degrees)
#C  2 average intensity (sum of all counts in the region divided with number of pixels)
#C  3 Number of pixels in region)
#C  4 error (sum of sqrt(intensity) for all pixels divided by number)
#N 4
#L TTh  Int  N_pix  Err
32.99 	0.065574 	61 	0.065574
33.03 	0.053918 	1391 	0.053076
33.07 	0.062439 	2050 	0.062439
33.11 	0.058938 	2579 	0.057348
33.15 	0.061687 	2999 	0.059734
33.19 	0.055057 	3342 	0.054356
33.23 	0.061028 	3523 	0.059531
33.27 	0.061708 	3630 	0.060901
33.31 	0.059836 	3660 	0.058716
33.35 	0.061722 	3694 	0.061246
33.39 	0.063824 	3729 	0.063039
33.43 	0.055836 	3761 	0.055213
33.47 	0.059242 	3798 	0.058625
33.51 	0.053997 	3815 	0.053230
33.55 	0.055165 	3843 	0.054708
33.59 	0.056443 	3880 	0.054934
33.63 	0.057923 	3919 	0.056877
33.67 	0.062215 	3954 	0.061623
33.71 	0.057107 	3975 	0.056370
33.75 	0.061015 	3999 	0.059697
33.79 	0.054195 	4041 	0.053470
33.83 	0.055556 	4050 	0.054832
33.87 	0.063002 	4111 	0.062147
33.91 	0.062907 	4149 	0.061918
33.95 	0.060990 	4181 	0.059869
33.99 	0.059524 	4200 	0.058687
34.03 	0.057493 	4244 	0.055952
34.07 	0.060450 	4268 	0.059626
34.11 	0.057880 	4302 	0.057063
34.15 	0.056338 	4331 	0.055256
34.19 	0.060752 	4362 	0.059812
34.23 	0.058047 	4393 	0.057247
34.27 	0.057666 	4422 	0.056474
34.31 	0.060565 	4458 	0.059514
34.35 	0.058207 	4484 	0.057010
34.39 	0.055309 	4502 	0.054138
34.43 	0.057502 	4539 	0.056856
34.47 	0.058798 	4592 	0.057629
34.51 	0.059271 	4606 	0.058253
34.55 	0.061813 	4643 	0.060930
34.59 	0.056898 	4675 	0.055771
34.63 	0.058811 	4710 	0.057796
34.67 	0.060114 	4741 	0.059496
34.71 	0.062316 	4766 	0.061087
34.75 	0.056572 	4808 	0.055699
34.79 	0.055348 	4824 	0.054255
34.83 	0.057589 	4862 	0.056746
34.87 	0.052999 	4868 	0.052137
34.91 	0.067186 	4882 	0.066346
34.95 	0.057260 	4890 	0.055702
34.99 	0.057995 	4897 	0.056918
35.03 	0.057860 	4943 	0.056774
35.07 	0.052227 	4940 	0.051160
35.11 	0.056802 	4947 	0.055500
35.15 	0.057322 	4937 	0.056136
35.19 	0.055443 	4942 	0.054969
35.23 	0.057634 	4945 	0.056923
35.27 	0.051940 	4948 	0.050875
35.31 	0.055139 	4933 	0.054308
35.35 	0.057467 	4942 	0.056637
35.39 	0.051567 	4945 	0.050975
35.43 	0.064667 	4933 	0.063222
35.47 	0.047658 	4931 	0.046945
35.51 	0.056841 	4926 	0.055771
35.55 	0.056825 	4945 	0.056588
35.59 	0.058645 	4945 	0.057460
35.63 	0.061703 	4943 	0.061111
35.67 	0.058276 	4942 	0.057091
35.71 	0.059753 	4937 	0.059041
35.75 	0.060028 	4931 	0.059316
35.79 	0.056569 	4932 	0.055382
35.83 	0.059038 	4946 	0.058564
35.87 	0.056267 	4923 	0.055910
35.91 	0.056221 	4927 	0.055389
35.95 	0.056539 	4917 	0.054970
35.99 	0.057704 	4939 	0.056162
36.03 	0.063726 	4943 	0.062522
36.07 	0.055477 	4939 	0.054409
36.11 	0.060256 	4929 	0.059543
36.15 	0.059121 	4939 	0.058884
36.19 	0.063765 	4940 	0.062817
36.23 	0.057751 	4935 	0.057157
36.27 	0.055635 	4925 	0.055278
36.31 	0.060471 	4928 	0.058807
36.35 	0.055792 	4929 	0.054604
36.39 	0.061776 	4921 	0.060467
36.43 	0.054789 	4928 	0.053551
36.47 	0.054498 	4936 	0.053786
36.51 	0.061018 	4933 	0.060068
36.55 	0.056424 	4927 	0.055592
36.59 	0.053452 	4939 	0.052622
36.63 	0.049280 	4931 	0.048805
36.67 	0.058418 	4930 	0.057111
36.71 	0.060150 	4921 	0.059198
36.75 	0.054814 	4944 	0.054340
36.79 	0.058525 	4921 	0.057334
36.83 	0.050865 	4915 	0.050150
36.87 	0.054005 	4944 	0.053412
36.91 	0.058288 	4941 	0.057458
36.95 	0.055342 	4933 	0.054510
36.99 	0.057953 	4935 	0.057122
37.03 	0.057474 	4924 	0.056641
37.07 	0.052280 	4935 	0.050836
37.11 	0.048024 	4935 	0.046956
37.15 	0.064983 	4909 	0.063909
37.19 	0.054010 	4925 	0.053534
37.23 	0.061610 	4918 	0.060400
37.27 	0.048018 	4894 	0.047420
37.31 	0.057143 	4935 	0.056075
37.35 	0.051235 	4938 	0.050168
37.39 	0.054553 	4931 	0.053583
37.43 	0.046431 	4932 	0.045719
37.47 	0.053358 	4929 	0.052882
37.51 	0.052504 	4933 	0.051791
37.55 	0.052941 	4930 	0.052822
37.59 	0.055137 	4915 	0.053826
37.63 	0.053263 	4919 	0.052072
37.67 	0.052610 	4904 	0.051893
37.71 	0.051126 	4929 	0.050156
37.75 	0.052429 	4940 	0.051461
37.79 	0.053144 	4930 	0.052550
37.83 	0.052846 	4920 	0.052012
37.87 	0.053250 	4939 	0.052182
37.91 	0.048682 	4930 	0.048325
37.95 	0.051006 	4921 	0.050054
37.99 	0.049064 	4912 	0.048586
38.03 	0.046853 	4909 	0.046137
38.07 	0.055205 	4909 	0.054966
38.11 	0.056130 	4935 	0.055536
38.15 	0.054900 	4918 	0.054424
38.19 	0.059635 	4930 	0.058328
38.23 	0.058323 	4938 	0.056662
38.27 	0.055984 	4930 	0.055152
38.31 	0.058453 	4927 	0.057027
38.35 	0.061891 	4928 	0.060921
38.39 	0.064983 	4909 	0.064247
38.43 	0.066517 	4916 	0.065564
38.47 	0.066028 	4907 	0.063860
38.51 	0.067113 	4932 	0.065905
38.55 	0.068476 	4936 	0.067033
38.59 	0.069253 	4924 	0.067568
38.63 	0.064175 	4924 	0.063105
38.67 	0.056917 	4937 	0.056205
38.71 	0.056458 	4924 	0.055744
38.75 	0.051959 	4927 	0.051483
38.79 	0.047629 	4934 	0.047391
38.83 	0.055499 	4919 	0.054665
38.87 	0.046630 	4911 	0.046272
38.91 	0.049969 	4903 	0.049492
38.95 	0.047987 	4918 	0.047749
38.99 	0.046182 	4937 	0.045351
39.03 	0.050263 	4934 	0.049670
39.07 	0.047319 	4924 	0.046843
39.11 	0.051511 	4931 	0.051036
39.15 	0.049847 	4915 	0.049371
39.19 	0.045353 	4917 	0.044023
39.23 	0.045279 	4925 	0.044803
39.27 	0.045418 	4910 	0.044940
39.31 	0.047297 	4884 	0.046218
39.35 	0.046201 	4935 	0.045370
39.39 	0.045851 	4929 	0.045257
39.43 	0.043381 	4933 	0.042788
39.47 	0.042251 	4923 	0.041775
39.51 	0.044882 	4924 	0.044049
39.55 	0.043301 	4919 	0.042825
39.59 	0.043770 	4912 	0.043293
39.63 	0.045307 	4922 	0.044712
39.67 	0.046407 	4913 	0.046050
39.71 	0.044127 	4895 	0.043169
39.75 	0.048904 	4928 	0.047716
39.79 	0.049533 	4926 	0.048939
39.83 	0.047831 	4934 	0.047594
39.87 	0.042030 	4925 	0.041436
39.91 	0.044900 	4922 	0.044662
39.95 	0.047813 	4915 	0.047455
39.99 	0.045823 	4932 	0.045467
40.03 	0.043831 	4928 	0.043593
40.07 	0.040626 	4923 	0.040388
40.11 	0.049837 	4916 	0.048288
40.15 	0.041930 	4913 	0.041453
40.19 	0.046054 	4929 	0.045460
40.23 	0.041363 	4932 	0.040987
40.27 	0.042131 	4937 	0.041538
40.31 	0.047176 	4939 	0.046583
40.35 	0.042692 	4919 	0.042334
40.39 	0.046846 	4931 	0.045659
40.43 	0.042462 	4922 	0.041867
40.47 	0.037820 	4918 	0.037463
40.51 	0.047135 	4922 	0.046064
40.55 	0.047066 	4908 	0.046589
40.59 	0.041928 	4937 	0.041454
40.63 	0.041176 	4930 	0.040820
40.67 	0.045620 	4932 	0.045145
40.71 	0.045620 	4932 	0.045145
40.75 	0.044616 	4931 	0.043765
40.79 	0.039196 	4924 	0.038958
40.83 	0.042208 	4928 	0.041851
40.87 	0.046672 	4928 	0.045939
40.91 	0.049563 	4923 	0.048730
40.95 	0.041522 	4913 	0.040569
40.99 	0.038993 	4924 	0.038755
41.03 	0.045872 	4905 	0.045633
41.07 	0.037120 	4930 	0.036763
41.11 	0.040122 	4935 	0.039528
41.15 	0.042502 	4941 	0.041316
41.19 	0.041582 	4930 	0.041463
41.23 	0.041709 	4939 	0.040997
41.27 	0.041168 	4931 	0.040455
41.31 	0.040746 	4933 	0.040034
41.35 	0.044147 	4938 	0.043910
41.39 	0.037300 	4933 	0.036944
41.43 	0.040576 	4929 	0.040101
41.47 	0.044255 	4926 	0.043898
41.51 	0.040081 	4940 	0.039725
41.55 	0.045795 	4935 	0.045202
41.59 	0.040949 	4933 	0.040355
41.63 	0.035642 	4938 	0.035286
41.67 	0.039271 	4940 	0.039153
41.71 	0.042359 	4934 	0.041766
41.75 	0.037736 	4929 	0.037498
41.79 	0.042476 	4944 	0.042120
41.83 	0.041599 	4928 	0.041361
41.87 	0.041135 	4935 	0.040660
41.91 	0.043760 	4936 	0.043641
41.95 	0.042588 	4931 	0.042350
41.99 	0.043629 	4905 	0.042793
42.03 	0.037457 	4939 	0.036983
42.07 	0.040105 	4937 	0.039749
42.11 	0.039029 	4945 	0.038319
42.15 	0.040705 	4938 	0.040112
42.19 	0.041769 	4908 	0.041271
42.23 	0.039248 	4892 	0.038529
42.27 	0.035494 	4874 	0.034773
42.31 	0.043460 	4855 	0.043098
42.35 	0.044233 	4838 	0.043749
42.39 	0.038301 	4804 	0.037936
42.43 	0.035684 	4792 	0.035196
42.47 	0.037356 	4765 	0.036864
42.51 	0.039848 	4743 	0.039725
42.55 	0.042906 	4708 	0.042532
42.59 	0.042504 	4729 	0.042132
42.63 	0.040561 	4709 	0.039814
42.67 	0.039069 	4684 	0.038694
42.71 	0.038816 	4663 	0.038314
42.75 	0.042019 	4617 	0.041511
42.79 	0.040594 	4582 	0.040338
42.83 	0.032628 	4536 	0.032370
42.87 	0.042009 	4499 	0.041619
42.91 	0.034785 	4456 	0.034259
42.95 	0.036685 	4416 	0.036154
42.99 	0.046066 	4385 	0.045799
43.03 	0.038541 	4333 	0.038271
43.07 	0.033054 	4296 	0.032509
43.11 	0.032432 	4255 	0.032432
43.15 	0.031384 	4206 	0.031244
43.19 	0.040534 	4194 	0.039975
43.23 	0.036591 	4154 	0.036450
43.27 	0.039220 	4105 	0.038935
43.31 	0.035058 	4079 	0.034627
43.35 	0.039187 	4032 	0.038751
43.39 	0.044478 	4002 	0.044331
43.43 	0.040657 	3960 	0.039473
43.47 	0.034940 	3921 	0.034791
43.51 	0.031468 	3877 	0.031165
43.55 	0.040486 	2964 	0.040486
43.59 	0.030355 	1746 	0.030355
43.63 	0.036963 	1001 	0.036963
43.67 	0.023904 	502 	0.023904
43.71 	0.016736 	239 	0.016736
43.75 	0.000000 	16 	0.000000