File: Example_Data/25SC_s1_0037.001.dat
#F C:\frames\spec\25SC_s1_0037.001
#C title =s:37 frm:1 25SC_s1
#C wavelength =0.15406

#S 1  fr_average C:\frames\spec\25SC_s1_0037.001 C:\win32app\speccom\mask.axs chi 0 180 0 360 0.02
#C 2 theta =0.000000 to 180 deg
#C   q   =0.000000 to 81.568 nm^-1
#C  chi  =0.000000 to 360 deg
#C collumns:
#C  1 position (2theta or chi in degrees)
#C  2 average intensity (sum of all counts in the region divided with number of pixels)
#C  3 Number of pixels in region)
#C  4 error (sum of sqrt(intensity) for all pixels divided by number)
#N 4
#L TTh  Int  N_pix  Err
32.99 	0.000000 	61 	0.000000
33.03 	0.063264 	1391 	0.061510
33.07 	0.063415 	2050 	0.061700
33.11 	0.060489 	2579 	0.060261
33.15 	0.059353 	2999 	0.058376
33.19 	0.062537 	3342 	0.061310
33.23 	0.051661 	3523 	0.050995
33.27 	0.059780 	3630 	0.058811
33.31 	0.055191 	3660 	0.054391
33.35 	0.056849 	3694 	0.055554
33.39 	0.061947 	3729 	0.060847
33.43 	0.065142 	3761 	0.063559
33.47 	0.058978 	3798 	0.058053
33.51 	0.070773 	3815 	0.069238
33.55 	0.050742 	3843 	0.050284
33.59 	0.062371 	3880 	0.061616
33.63 	0.058433 	3919 	0.057237
33.67 	0.056651 	3954 	0.055466
33.71 	0.064654 	3975 	0.063180
33.75 	0.059765 	3999 	0.058300
33.79 	0.060629 	4041 	0.059324
33.83 	0.066420 	4050 	0.064660
33.87 	0.048163 	4111 	0.047024
33.91 	0.064594 	4149 	0.063865
33.95 	0.056685 	4181 	0.055564
33.99 	0.053333 	4200 	0.052636
34.03 	0.052545 	4244 	0.051579
34.07 	0.054124 	4268 	0.053300
34.11 	0.062529 	4302 	0.061304
34.15 	0.055876 	4331 	0.054659
34.19 	0.055938 	4362 	0.054841
34.23 	0.058502 	4393 	0.057302
34.27 	0.063772 	4422 	0.062845
34.31 	0.055630 	4458 	0.054973
34.35 	0.055085 	4484 	0.054040
34.39 	0.057308 	4502 	0.056657
34.43 	0.063009 	4539 	0.062106
34.47 	0.057927 	4592 	0.056524
34.51 	0.051455 	4606 	0.050671
34.55 	0.055568 	4643 	0.054937
34.59 	0.051551 	4675 	0.050423
34.63 	0.060085 	4710 	0.059712
34.67 	0.060325 	4741 	0.059460
34.71 	0.055602 	4766 	0.054742
34.75 	0.052413 	4808 	0.051803
34.79 	0.054104 	4824 	0.053254
34.83 	0.053682 	4862 	0.052838
34.87 	0.051767 	4868 	0.050563
34.91 	0.050799 	4882 	0.049959
34.95 	0.053988 	4890 	0.053029
34.99 	0.056974 	4897 	0.055658
35.03 	0.054825 	4943 	0.053995
35.07 	0.051417 	4940 	0.050231
35.11 	0.057004 	4947 	0.056412
35.15 	0.055297 	4937 	0.054229
35.19 	0.057467 	4942 	0.056163
35.23 	0.061072 	4945 	0.060361
35.27 	0.056791 	4948 	0.055725
35.31 	0.060207 	4933 	0.059376
35.35 	0.055443 	4942 	0.054238
35.39 	0.052376 	4945 	0.051428
35.43 	0.055950 	4933 	0.054861
35.47 	0.057595 	4931 	0.057001
35.51 	0.053390 	4926 	0.051963
35.55 	0.059252 	4945 	0.058067
35.59 	0.056825 	4945 	0.055996
35.63 	0.054825 	4943 	0.054232
35.67 	0.051599 	4942 	0.050275
35.71 	0.051448 	4937 	0.050974
35.75 	0.052930 	4931 	0.052336
35.79 	0.057380 	4932 	0.056430
35.83 	0.059442 	4946 	0.058494
35.87 	0.060735 	4923 	0.059902
35.91 	0.057642 	4927 	0.056809
35.95 	0.066504 	4917 	0.065412
35.99 	0.060741 	4939 	0.059792
36.03 	0.052397 	4943 	0.051785
36.07 	0.059931 	4939 	0.058726
36.11 	0.050517 	4929 	0.049804
36.15 	0.062361 	4939 	0.060918
36.19 	0.059514 	4940 	0.058447
36.23 	0.062006 	4935 	0.060938
36.27 	0.054010 	4925 	0.053178
36.31 	0.057833 	4928 	0.057238
36.35 	0.053358 	4929 	0.052645
36.39 	0.062589 	4921 	0.061399
36.43 	0.055804 	4928 	0.054377
36.47 	0.053890 	4936 	0.052822
36.51 	0.055342 	4933 	0.054629
36.55 	0.064339 	4927 	0.063269
36.59 	0.060134 	4939 	0.059303
36.63 	0.053742 	4931 	0.053266
36.67 	0.056592 	4930 	0.055642
36.71 	0.052835 	4921 	0.052121
36.75 	0.055421 	4944 	0.054591
36.79 	0.050803 	4921 	0.050446
36.83 	0.056562 	4915 	0.055727
36.87 	0.050566 	4944 	0.050211
36.91 	0.063550 	4941 	0.062246
36.95 	0.056152 	4933 	0.055559
36.99 	0.056332 	4935 	0.055976
37.03 	0.057677 	4924 	0.056130
37.07 	0.055724 	4935 	0.055131
37.11 	0.058156 	4935 	0.057325
37.15 	0.055001 	4909 	0.053808
37.19 	0.053604 	4925 	0.052415
37.23 	0.051850 	4918 	0.051017
37.27 	0.058643 	4894 	0.057446
37.31 	0.058156 	4935 	0.057088
37.35 	0.055893 	4938 	0.054825
37.39 	0.053133 	4931 	0.052539
37.43 	0.057989 	4932 	0.056682
37.47 	0.061067 	4929 	0.060116
37.51 	0.053112 	4933 	0.052518
37.55 	0.052333 	4930 	0.051501
37.59 	0.054527 	4915 	0.053693
37.63 	0.051433 	4919 	0.050342
37.67 	0.057096 	4904 	0.056141
37.71 	0.051532 	4929 	0.049848
37.75 	0.051417 	4940 	0.050468
37.79 	0.053550 	4930 	0.052718
37.83 	0.051016 	4920 	0.049945
37.87 	0.060336 	4939 	0.059387
37.91 	0.051318 	4930 	0.050487
37.95 	0.048567 	4921 	0.047496
37.99 	0.058428 	4912 	0.057474
38.03 	0.055408 	4909 	0.054573
38.07 	0.048279 	4909 	0.047682
38.11 	0.059169 	4935 	0.058338
38.15 	0.057340 	4918 	0.056745
38.19 	0.056795 	4930 	0.056082
38.23 	0.056906 	4938 	0.056194
38.27 	0.066126 	4930 	0.065175
38.31 	0.065963 	4927 	0.064774
38.35 	0.065138 	4928 	0.064306
38.39 	0.071705 	4909 	0.070512
38.43 	0.070993 	4916 	0.069444
38.47 	0.072753 	4907 	0.070843
38.51 	0.070357 	4932 	0.068932
38.55 	0.071718 	4936 	0.070650
38.59 	0.068440 	4924 	0.067608
38.63 	0.073111 	4924 	0.072279
38.67 	0.069273 	4937 	0.068324
38.71 	0.065597 	4924 	0.063674
38.75 	0.063933 	4927 	0.062388
38.79 	0.056749 	4934 	0.055799
38.83 	0.051230 	4919 	0.050873
38.87 	0.052535 	4911 	0.051581
38.91 	0.052417 	4903 	0.051103
38.95 	0.046360 	4918 	0.046003
38.99 	0.048815 	4937 	0.048578
39.03 	0.047426 	4934 	0.047070
39.07 	0.044476 	4924 	0.043762
39.11 	0.046846 	4931 	0.046371
39.15 	0.042319 	4915 	0.042081
39.19 	0.046370 	4917 	0.046131
39.23 	0.049949 	4925 	0.049355
39.27 	0.050509 	4910 	0.049774
39.31 	0.041155 	4884 	0.040675
39.35 	0.048632 	4935 	0.048157
39.39 	0.041591 	4929 	0.041353
39.43 	0.044598 	4933 	0.044241
39.47 	0.045704 	4923 	0.045466
39.51 	0.040414 	4924 	0.040176
39.55 	0.046757 	4919 	0.045924
39.59 	0.040717 	4912 	0.040478
39.63 	0.046119 	4922 	0.045643
39.67 	0.046407 	4913 	0.045215
39.71 	0.042084 	4895 	0.041844
39.75 	0.040787 	4928 	0.040312
39.79 	0.043443 	4926 	0.042967
39.83 	0.043778 	4934 	0.042947
39.87 	0.047919 	4925 	0.047443
39.91 	0.044494 	4922 	0.043899
39.95 	0.045575 	4915 	0.045098
39.99 	0.045823 	4932 	0.045229
40.03 	0.039570 	4928 	0.038975
40.07 	0.041844 	4923 	0.041368
40.11 	0.044752 	4916 	0.043799
40.15 	0.043151 	4913 	0.042316
40.19 	0.045648 	4929 	0.044935
40.23 	0.050284 	4932 	0.049571
40.27 	0.046587 	4937 	0.045994
40.31 	0.042114 	4939 	0.041995
40.35 	0.044115 	4919 	0.043638
40.39 	0.045630 	4931 	0.045392
40.43 	0.044088 	4922 	0.043731
40.47 	0.043717 	4918 	0.043598
40.51 	0.041040 	4922 	0.040445
40.55 	0.037897 	4908 	0.037897
40.59 	0.039093 	4937 	0.038618
40.63 	0.040974 	4930 	0.040855
40.67 	0.044404 	4932 	0.043929
40.71 	0.041768 	4932 	0.041531
40.75 	0.045832 	4931 	0.045357
40.79 	0.045491 	4924 	0.044401
40.83 	0.042614 	4928 	0.041524
40.87 	0.041396 	4928 	0.041039
40.91 	0.046313 	4923 	0.045718
40.95 	0.044372 	4913 	0.044253
40.99 	0.041836 	4924 	0.041479
41.03 	0.040163 	4905 	0.039685
41.07 	0.043813 	4930 	0.043219
41.11 	0.044580 	4935 	0.043630
41.15 	0.044728 	4941 	0.044728
41.19 	0.039351 	4930 	0.038757
41.23 	0.040494 	4939 	0.039545
41.27 	0.043805 	4931 	0.043211
41.31 	0.041760 	4933 	0.041166
41.35 	0.042122 	4938 	0.041648
41.39 	0.042368 	4933 	0.041655
41.43 	0.041185 	4929 	0.041185
41.47 	0.044864 	4926 	0.044745
41.51 	0.037045 	4940 	0.036807
41.55 	0.039311 	4935 	0.039192
41.59 	0.038719 	4933 	0.038481
41.63 	0.044147 	4938 	0.043436
41.67 	0.034818 	4940 	0.034343
41.71 	0.036887 	4934 	0.036768
41.75 	0.038953 	4929 	0.038359
41.79 	0.040858 	4944 	0.040384
41.83 	0.042411 	4928 	0.042292
41.87 	0.038501 	4935 	0.038144
41.91 	0.043152 	4936 	0.042678
41.95 	0.038329 	4931 	0.037973
41.99 	0.039755 	4905 	0.039517
42.03 	0.035027 	4939 	0.034553
42.07 	0.039093 	4937 	0.038737
42.11 	0.040647 	4945 	0.040292
42.15 	0.046173 	4938 	0.045579
42.19 	0.037694 	4908 	0.037455
42.23 	0.043132 	4892 	0.042653
42.27 	0.042265 	4874 	0.041664
42.31 	0.032956 	4855 	0.032835
42.35 	0.035345 	4838 	0.035224
42.39 	0.034555 	4804 	0.034433
42.43 	0.037145 	4792 	0.036779
42.47 	0.034627 	4765 	0.034627
42.51 	0.041113 	4743 	0.040866
42.55 	0.039295 	4708 	0.038922
42.59 	0.038486 	4729 	0.037743
42.63 	0.043746 	4709 	0.043373
42.67 	0.035653 	4684 	0.035528
42.71 	0.036886 	4663 	0.036761
42.75 	0.034438 	4617 	0.034057
42.79 	0.032737 	4582 	0.032737
42.83 	0.037478 	4536 	0.037478
42.87 	0.040898 	4499 	0.040638
42.91 	0.031194 	4456 	0.030800
42.95 	0.036458 	4416 	0.036193
42.99 	0.034664 	4385 	0.034530
43.03 	0.034156 	4333 	0.033886
43.07 	0.037709 	4296 	0.036869
43.11 	0.037603 	4255 	0.037465
43.15 	0.030908 	4206 	0.030212
43.19 	0.034573 	4194 	0.034294
43.23 	0.035628 	4154 	0.035628
43.27 	0.033861 	4105 	0.033290
43.31 	0.043638 	4079 	0.043064
43.35 	0.037946 	4032 	0.037220
43.39 	0.033483 	4002 	0.033483
43.43 	0.033838 	3960 	0.033395
43.47 	0.029839 	3921 	0.029242
43.51 	0.037658 	3877 	0.036600
43.55 	0.037449 	2964 	0.037054
43.59 	0.037228 	1746 	0.036502
43.63 	0.035964 	1001 	0.035964
43.67 	0.043825 	502 	0.041491
43.71 	0.066946 	239 	0.066946
43.75 	0.062500 	16 	0.062500