File: Example_Data/25SC_s1_0013.003.dat
#F C:\frames\spec\25SC_s1_0013.003
#C title =s:13 frm:3 25SC_s1
#C wavelength =0.15406

#S 1  fr_average C:\frames\spec\25SC_s1_0013.003 C:\win32app\speccom\mask.axs chi 0 180 0 360 0.02
#C 2 theta =0.000000 to 180 deg
#C   q   =0.000000 to 81.568 nm^-1
#C  chi  =0.000000 to 360 deg
#C collumns:
#C  1 position (2theta or chi in degrees)
#C  2 average intensity (sum of all counts in the region divided with number of pixels)
#C  3 Number of pixels in region)
#C  4 error (sum of sqrt(intensity) for all pixels divided by number)
#N 4
#L TTh  Int  N_pix  Err
32.99 	0.049180 	61 	0.049180
33.03 	0.061107 	1391 	0.060265
33.07 	0.053659 	2050 	0.052230
33.11 	0.064754 	2579 	0.063391
33.15 	0.059020 	2999 	0.058043
33.19 	0.057151 	3342 	0.055223
33.23 	0.059892 	3523 	0.059227
33.27 	0.060055 	3630 	0.058764
33.31 	0.057923 	3660 	0.057763
33.35 	0.061992 	3694 	0.060724
33.39 	0.059802 	3729 	0.058859
33.43 	0.057697 	3761 	0.057542
33.47 	0.059242 	3798 	0.058008
33.51 	0.066055 	3815 	0.065134
33.55 	0.058028 	3843 	0.056961
33.59 	0.059794 	3880 	0.057982
33.63 	0.059964 	3919 	0.059366
33.67 	0.062215 	3954 	0.061623
33.71 	0.057107 	3975 	0.056370
33.75 	0.065266 	3999 	0.064534
33.79 	0.064093 	4041 	0.063078
33.83 	0.059506 	4050 	0.058494
33.87 	0.058623 	4111 	0.057341
33.91 	0.064353 	4149 	0.062612
33.95 	0.057881 	4181 	0.057601
33.99 	0.062857 	4200 	0.062578
34.03 	0.060792 	4244 	0.059135
34.07 	0.061387 	4268 	0.060564
34.11 	0.056950 	4302 	0.055997
34.15 	0.063496 	4331 	0.062278
34.19 	0.059376 	4362 	0.058705
34.23 	0.061917 	4393 	0.060317
34.27 	0.060380 	4422 	0.059718
34.31 	0.057649 	4458 	0.056598
34.35 	0.054416 	4484 	0.053763
34.39 	0.062195 	4502 	0.061414
34.43 	0.056180 	4539 	0.055405
34.47 	0.061411 	4592 	0.060008
34.51 	0.055145 	4606 	0.053746
34.55 	0.054275 	4643 	0.053644
34.59 	0.058824 	4675 	0.058197
34.63 	0.061783 	4710 	0.060788
34.67 	0.062856 	4741 	0.061744
34.71 	0.059379 	4766 	0.058764
34.75 	0.063852 	4808 	0.062979
34.79 	0.064262 	4824 	0.063169
34.83 	0.060469 	4862 	0.059626
34.87 	0.065735 	4868 	0.064532
34.91 	0.059607 	4882 	0.059247
34.95 	0.062372 	4890 	0.061274
34.99 	0.062487 	4897 	0.061411
35.03 	0.058467 	4943 	0.057755
35.07 	0.061943 	4940 	0.060639
35.11 	0.059834 	4947 	0.058275
35.15 	0.060563 	4937 	0.059357
35.19 	0.059895 	4942 	0.058828
35.23 	0.059050 	4945 	0.057964
35.27 	0.060024 	4948 	0.058959
35.31 	0.067099 	4933 	0.065437
35.35 	0.064144 	4942 	0.062939
35.39 	0.062083 	4945 	0.060898
35.43 	0.058180 	4933 	0.057467
35.47 	0.062462 	4931 	0.061749
35.51 	0.059074 	4926 	0.058242
35.55 	0.064307 	4945 	0.063715
35.59 	0.057836 	4945 	0.057125
35.63 	0.053207 	4943 	0.052614
35.67 	0.062728 	4942 	0.061424
35.71 	0.061171 	4937 	0.059965
35.75 	0.060840 	4931 	0.060008
35.79 	0.061638 	4932 	0.060094
35.83 	0.056814 	4946 	0.056103
35.87 	0.058907 	4923 	0.057479
35.91 	0.055409 	4927 	0.054933
35.95 	0.059793 	4917 	0.058959
35.99 	0.060539 	4939 	0.059708
36.03 	0.059680 	4943 	0.058495
36.07 	0.052845 	4939 	0.052370
36.11 	0.058633 	4929 	0.057920
36.15 	0.056489 	4939 	0.055896
36.19 	0.052024 	4940 	0.050700
36.23 	0.060182 	4935 	0.059589
36.27 	0.063147 	4925 	0.061700
36.31 	0.052151 	4928 	0.051319
36.35 	0.058024 	4929 	0.057291
36.39 	0.066653 	4921 	0.064629
36.43 	0.059456 	4928 	0.058267
36.47 	0.061791 	4936 	0.059892
36.51 	0.053112 	4933 	0.052399
36.55 	0.065354 	4927 	0.064284
36.59 	0.053250 	4939 	0.052538
36.63 	0.061448 	4931 	0.060260
36.67 	0.056187 	4930 	0.055474
36.71 	0.061370 	4921 	0.060536
36.75 	0.052589 	4944 	0.052352
36.79 	0.060963 	4921 	0.060011
36.83 	0.057172 	4915 	0.056218
36.87 	0.056432 	4944 	0.055366
36.91 	0.053835 	4941 	0.053480
36.95 	0.052909 	4933 	0.052315
36.99 	0.060385 	4935 	0.058842
37.03 	0.059098 	4924 	0.057909
37.07 	0.057345 	4935 	0.056396
37.11 	0.056940 	4935 	0.056347
37.15 	0.060705 	4909 	0.059750
37.19 	0.059086 	4925 	0.058254
37.23 	0.049004 	4918 	0.048150
37.27 	0.053535 	4894 	0.052817
37.31 	0.058561 	4935 	0.057730
37.35 	0.055893 	4938 	0.055181
37.39 	0.050902 	4931 	0.050190
37.43 	0.045418 	4932 	0.045180
37.47 	0.047474 	4929 	0.046999
37.51 	0.051287 	4933 	0.050694
37.55 	0.051927 	4930 	0.050858
37.59 	0.053917 	4915 	0.053082
37.63 	0.054686 	4919 	0.053733
37.67 	0.054241 	4904 	0.053286
37.71 	0.054981 	4929 	0.054129
37.75 	0.054049 	4940 	0.053080
37.79 	0.056998 	4930 	0.056166
37.83 	0.058943 	4920 	0.058586
37.87 	0.057502 	4939 	0.056790
37.91 	0.052535 	4930 	0.051466
37.95 	0.062386 	4921 	0.060957
37.99 	0.052117 	4912 	0.051163
38.03 	0.051945 	4909 	0.051229
38.07 	0.051742 	4909 	0.050668
38.11 	0.054509 	4935 	0.053322
38.15 	0.053884 	4918 	0.052812
38.19 	0.056795 	4930 	0.055607
38.23 	0.055488 	4938 	0.054895
38.27 	0.050507 	4930 	0.049913
38.31 	0.055612 	4927 	0.055374
38.35 	0.058239 	4928 	0.057525
38.39 	0.060705 	4909 	0.060108
38.43 	0.058584 	4916 	0.057512
38.47 	0.057061 	4907 	0.055868
38.51 	0.056569 	4932 	0.055481
38.55 	0.063006 	4936 	0.062057
38.59 	0.058286 	4924 	0.056977
38.63 	0.057880 	4924 	0.056690
38.67 	0.064006 	4937 	0.062563
38.71 	0.060926 	4924 	0.060212
38.75 	0.052162 	4927 	0.051448
38.79 	0.053101 	4934 	0.052389
38.83 	0.048181 	4919 	0.047585
38.87 	0.054775 	4911 	0.053582
38.91 	0.050377 	4903 	0.049183
38.95 	0.047580 	4918 	0.047342
38.99 	0.046587 	4937 	0.045994
39.03 	0.046615 	4934 	0.045784
39.07 	0.054427 	4924 	0.053832
39.11 	0.049077 	4931 	0.048246
39.15 	0.049847 	4915 	0.049132
39.19 	0.051454 	4917 	0.050839
39.23 	0.054010 	4925 	0.053158
39.27 	0.049084 	4910 	0.048487
39.31 	0.046888 	4884 	0.046508
39.35 	0.052482 	4935 	0.051770
39.39 	0.047677 	4929 	0.046607
39.43 	0.049057 	4933 	0.048701
39.47 	0.047735 	4923 	0.047021
39.51 	0.042851 	4924 	0.042375
39.55 	0.045944 	4919 	0.045349
39.59 	0.051914 	4912 	0.051198
39.63 	0.049573 	4922 	0.048978
39.67 	0.049461 	4913 	0.048268
39.71 	0.047600 	4895 	0.047360
39.75 	0.049107 	4928 	0.048394
39.79 	0.049939 	4926 	0.049226
39.83 	0.047426 	4934 	0.046951
39.87 	0.049949 	4925 	0.049236
39.91 	0.051605 	4922 	0.050415
39.95 	0.051475 	4915 	0.051118
39.99 	0.051500 	4932 	0.051144
40.03 	0.048093 	4928 	0.047617
40.07 	0.048141 	4923 	0.047427
40.11 	0.048413 	4916 	0.047579
40.15 	0.052310 	4913 	0.051356
40.19 	0.047677 	4929 	0.046964
40.23 	0.046026 	4932 	0.045551
40.27 	0.045574 	4937 	0.044506
40.31 	0.044746 	4939 	0.044153
40.35 	0.049197 	4919 	0.048840
40.39 	0.043805 	4931 	0.043092
40.43 	0.048151 	4922 	0.047199
40.47 	0.044530 	4918 	0.044054
40.51 	0.045307 	4922 	0.044593
40.55 	0.044825 	4908 	0.043989
40.59 	0.041321 	4937 	0.040846
40.63 	0.046856 	4930 	0.046024
40.67 	0.044201 	4932 	0.043013
40.71 	0.046229 	4932 	0.045635
40.75 	0.040560 	4931 	0.039966
40.79 	0.045898 	4924 	0.045422
40.83 	0.049107 	4928 	0.048632
40.87 	0.048093 	4928 	0.047260
40.91 	0.044282 	4923 	0.043687
40.95 	0.043354 	4913 	0.042520
40.99 	0.052193 	4924 	0.050885
41.03 	0.046891 	4905 	0.046055
41.07 	0.039148 	4930 	0.039148
41.11 	0.043364 	4935 	0.042177
41.15 	0.041894 	4941 	0.041539
41.19 	0.041785 	4930 	0.041191
41.23 	0.040696 	4939 	0.040222
41.27 	0.042993 	4931 	0.042518
41.31 	0.044598 	4933 	0.044004
41.35 	0.045970 	4938 	0.045614
41.39 	0.047030 	4933 	0.046199
41.43 	0.042199 	4929 	0.042080
41.47 	0.045473 	4926 	0.045235
41.51 	0.052834 	4940 	0.051767
41.55 	0.047619 	4935 	0.047144
41.59 	0.049868 	4933 	0.049631
41.63 	0.044350 	4938 	0.043757
41.67 	0.045344 	4940 	0.045107
41.71 	0.043778 	4934 	0.042947
41.75 	0.039968 	4929 	0.039611
41.79 	0.044296 	4944 	0.043585
41.83 	0.043425 	4928 	0.042831
41.87 	0.046809 	4935 	0.046571
41.91 	0.045989 	4936 	0.045395
41.95 	0.042791 	4931 	0.042672
41.99 	0.043017 	4905 	0.042301
42.03 	0.041709 	4939 	0.041116
42.07 	0.039498 	4937 	0.039498
42.11 	0.039434 	4945 	0.038960
42.15 	0.046375 	4938 	0.045782
42.19 	0.037082 	4908 	0.036724
42.23 	0.042110 	4892 	0.041631
42.27 	0.037957 	4874 	0.037095
42.31 	0.040577 	4855 	0.040094
42.35 	0.041546 	4838 	0.041062
42.39 	0.042048 	4804 	0.041682
42.43 	0.039858 	4792 	0.039491
42.47 	0.044491 	4765 	0.044368
42.51 	0.046173 	4743 	0.045926
42.55 	0.050552 	4708 	0.050055
42.59 	0.041869 	4729 	0.041374
42.63 	0.042897 	4709 	0.042523
42.67 	0.043339 	4684 	0.042213
42.71 	0.042462 	4663 	0.041834
42.75 	0.041802 	4617 	0.041295
42.79 	0.037320 	4582 	0.036809
42.83 	0.039683 	4536 	0.039166
42.87 	0.038675 	4499 	0.038154
42.91 	0.041966 	4456 	0.040914
42.95 	0.045743 	4416 	0.044814
42.99 	0.039909 	4385 	0.039642
43.03 	0.039695 	4333 	0.039695
43.07 	0.040968 	4296 	0.040423
43.11 	0.040893 	4255 	0.039929
43.15 	0.042083 	4206 	0.041386
43.19 	0.041011 	4194 	0.041011
43.23 	0.043572 	4154 	0.042726
43.27 	0.040926 	4105 	0.040498
43.31 	0.043883 	4079 	0.043740
43.35 	0.040675 	4032 	0.040093
43.39 	0.037481 	4002 	0.036896
43.43 	0.035354 	3960 	0.035206
43.47 	0.044887 	3921 	0.044737
43.51 	0.044880 	3877 	0.044125
43.55 	0.044197 	2964 	0.043604
43.59 	0.034364 	1746 	0.034364
43.63 	0.027972 	1001 	0.027972
43.67 	0.033865 	502 	0.033865
43.71 	0.050209 	239 	0.050209
43.75 	0.000000 	16 	0.000000