File: Example_Data/25SC_s1_0020.000.dat
#F C:\frames\spec\25SC_s1_0020.000
#C title =s:20 frm:0 25SC_s1
#C wavelength =0.15406

#S 1  fr_average C:\frames\spec\25SC_s1_0020.000 C:\win32app\speccom\mask.axs chi 0 180 0 360 0.02
#C 2 theta =0.000000 to 180 deg
#C   q   =0.000000 to 81.568 nm^-1
#C  chi  =0.000000 to 360 deg
#C collumns:
#C  1 position (2theta or chi in degrees)
#C  2 average intensity (sum of all counts in the region divided with number of pixels)
#C  3 Number of pixels in region)
#C  4 error (sum of sqrt(intensity) for all pixels divided by number)
#N 4
#L TTh  Int  N_pix  Err
32.99 	0.049180 	61 	0.049180
33.03 	0.059669 	1391 	0.058406
33.07 	0.067805 	2050 	0.066376
33.11 	0.063203 	2579 	0.061613
33.15 	0.062021 	2999 	0.061239
33.19 	0.055655 	3342 	0.054604
33.23 	0.057054 	3523 	0.056222
33.27 	0.053719 	3630 	0.053235
33.31 	0.068033 	3660 	0.067233
33.35 	0.056308 	3694 	0.055673
33.39 	0.059265 	3729 	0.058166
33.43 	0.065940 	3761 	0.065005
33.47 	0.060558 	3798 	0.059941
33.51 	0.059764 	3815 	0.058843
33.55 	0.061410 	3843 	0.060013
33.59 	0.057990 	3880 	0.057386
33.63 	0.063537 	3919 	0.061593
33.67 	0.059939 	3954 	0.058754
33.71 	0.063648 	3975 	0.062911
33.75 	0.056014 	3999 	0.054989
33.79 	0.061123 	4041 	0.060254
33.83 	0.060247 	4050 	0.058945
33.87 	0.058623 	4111 	0.056747
33.91 	0.058086 	4149 	0.056674
33.95 	0.060273 	4181 	0.059712
33.99 	0.063810 	4200 	0.062275
34.03 	0.055844 	4244 	0.055429
34.07 	0.060684 	4268 	0.059723
34.11 	0.060205 	4302 	0.059796
34.15 	0.056569 	4331 	0.056028
34.19 	0.061440 	4362 	0.060365
34.23 	0.058275 	4393 	0.057474
34.27 	0.056762 	4422 	0.055702
34.31 	0.056079 	4458 	0.055553
34.35 	0.057761 	4484 	0.056324
34.39 	0.057974 	4502 	0.057454
34.43 	0.055519 	4539 	0.053949
34.47 	0.058362 	4592 	0.057469
34.51 	0.052540 	4606 	0.051650
34.55 	0.052768 	4643 	0.052137
34.59 	0.053690 	4675 	0.052437
34.63 	0.056476 	4710 	0.055978
34.67 	0.058848 	4741 	0.057983
34.71 	0.057700 	4766 	0.057086
34.75 	0.053661 	4808 	0.053173
34.79 	0.058872 	4824 	0.057901
34.83 	0.059852 	4862 	0.058888
34.87 	0.056491 	4868 	0.055529
34.91 	0.060016 	4882 	0.059296
34.95 	0.060327 	4890 	0.059489
34.99 	0.052277 	4897 	0.051798
35.03 	0.054623 	4943 	0.054149
35.07 	0.053846 	4940 	0.053372
35.11 	0.057004 	4947 	0.056057
35.15 	0.055904 	4937 	0.055054
35.19 	0.059490 	4942 	0.058305
35.23 	0.061274 	4945 	0.060208
35.27 	0.056993 	4948 	0.056519
35.31 	0.058180 	4933 	0.056992
35.35 	0.056455 	4942 	0.056099
35.39 	0.055814 	4945 	0.054866
35.43 	0.054936 	4933 	0.054224
35.47 	0.063070 	4931 	0.062001
35.51 	0.056232 	4926 	0.055142
35.55 	0.062487 	4945 	0.061066
35.59 	0.052376 	4945 	0.051310
35.63 	0.055634 	4943 	0.055160
35.67 	0.057669 	4942 	0.056484
35.71 	0.063804 	4937 	0.062736
35.75 	0.057392 	4931 	0.056323
35.79 	0.053933 	4932 	0.052865
35.83 	0.058229 	4946 	0.057400
35.87 	0.062157 	4923 	0.060967
35.91 	0.066978 	4927 	0.065175
35.95 	0.055522 	4917 	0.054926
35.99 	0.057704 	4939 	0.056261
36.03 	0.053611 	4943 	0.053137
36.07 	0.065398 	4939 	0.064449
36.11 	0.054169 	4929 	0.053218
36.15 	0.053857 	4939 	0.052414
36.19 	0.058300 	4940 	0.057707
36.23 	0.057143 	4935 	0.056055
36.27 	0.059898 	4925 	0.059046
36.31 	0.066964 	4928 	0.066013
36.35 	0.057618 	4929 	0.056905
36.39 	0.057915 	4921 	0.056467
36.43 	0.059253 	4928 	0.057589
36.47 	0.057536 	4936 	0.056468
36.51 	0.055950 	4933 	0.054881
36.55 	0.058250 	4927 	0.057775
36.59 	0.060741 	4939 	0.060029
36.63 	0.064693 	4931 	0.063624
36.67 	0.057809 	4930 	0.056483
36.71 	0.059744 	4921 	0.058077
36.75 	0.056028 	4944 	0.055080
36.79 	0.058321 	4921 	0.057112
36.83 	0.059207 	4915 	0.058491
36.87 	0.063309 	4944 	0.062124
36.91 	0.066586 	4941 	0.065637
36.95 	0.054733 	4933 	0.053902
36.99 	0.062614 	4935 	0.061546
37.03 	0.063972 	4924 	0.062664
37.07 	0.059169 	4935 	0.058338
37.11 	0.051874 	4935 	0.051518
37.15 	0.062946 	4909 	0.061514
37.19 	0.052386 	4925 	0.051434
37.23 	0.058560 	4918 	0.057469
37.27 	0.056600 	4894 	0.056001
37.31 	0.053901 	4935 	0.053288
37.35 	0.056096 	4938 	0.055028
37.39 	0.065910 	4931 	0.065078
37.43 	0.055961 	4932 	0.055130
37.47 	0.061473 	4929 	0.060166
37.51 	0.055950 	4933 	0.055118
37.55 	0.057809 	4930 	0.057334
37.59 	0.055341 	4915 	0.054983
37.63 	0.058142 	4919 	0.056832
37.67 	0.064029 	4904 	0.062596
37.71 	0.052343 	4929 	0.051155
37.75 	0.054656 	4940 	0.053233
37.79 	0.058621 	4930 	0.057670
37.83 	0.056707 	4920 	0.055755
37.87 	0.053655 	4939 	0.052943
37.91 	0.065720 	4930 	0.064770
37.95 	0.051616 	4921 	0.050901
37.99 	0.052117 	4912 	0.051163
38.03 	0.058057 	4909 	0.057341
38.07 	0.058668 	4909 	0.057336
38.11 	0.058359 	4935 	0.057409
38.15 	0.057950 	4918 	0.056125
38.19 	0.062272 	4930 	0.061202
38.23 	0.060956 	4938 	0.059532
38.27 	0.059838 	4930 	0.058412
38.31 	0.069008 	4927 	0.068056
38.35 	0.062500 	4928 	0.061668
38.39 	0.063760 	4909 	0.062686
38.43 	0.071806 	4916 	0.070853
38.47 	0.072549 	4907 	0.070998
38.51 	0.079481 	4932 	0.077343
38.55 	0.085900 	4936 	0.084119
38.59 	0.077376 	4924 	0.075473
38.63 	0.085093 	4924 	0.082576
38.67 	0.080616 	4937 	0.079073
38.71 	0.080219 	4924 	0.078911
38.75 	0.076923 	4927 	0.075377
38.79 	0.069720 	4934 	0.068177
38.83 	0.074405 	4919 	0.072838
38.87 	0.055386 	4911 	0.054909
38.91 	0.064042 	4903 	0.063087
38.95 	0.059374 	4918 	0.058302
38.99 	0.054284 	4937 	0.053691
39.03 	0.046413 	4934 	0.045700
39.07 	0.047929 	4924 	0.047334
39.11 	0.050700 	4931 	0.050343
39.15 	0.044761 	4915 	0.044403
39.19 	0.044133 	4917 	0.043299
39.23 	0.048528 	4925 	0.048052
39.27 	0.051731 	4910 	0.050419
39.31 	0.047502 	4884 	0.046902
39.35 	0.049037 	4935 	0.047969
39.39 	0.044431 	4929 	0.043718
39.43 	0.051085 	4933 	0.050253
39.47 	0.045094 	4923 	0.044381
39.51 	0.048335 	4924 	0.047621
39.55 	0.044318 	4919 	0.043961
39.59 	0.043770 	4912 	0.043413
39.63 	0.046323 	4922 	0.045132
39.67 	0.050682 	4913 	0.049966
39.71 	0.047191 	4895 	0.046114
39.75 	0.045860 	4928 	0.045147
39.79 	0.045676 	4926 	0.045200
39.83 	0.043170 	4934 	0.042457
39.87 	0.043858 	4925 	0.043382
39.91 	0.044088 	4922 	0.043255
39.95 	0.050051 	4915 	0.049455
39.99 	0.042376 	4932 	0.041901
40.03 	0.048295 	4928 	0.047582
40.07 	0.041844 	4923 	0.041249
40.11 	0.049837 	4916 	0.049480
40.15 	0.043761 	4913 	0.043285
40.19 	0.047271 	4929 	0.046083
40.23 	0.042579 	4932 	0.041629
40.27 	0.043549 	4937 	0.042481
40.31 	0.043936 	4939 	0.043699
40.35 	0.044521 	4919 	0.043926
40.39 	0.042588 	4931 	0.042113
40.43 	0.040431 	4922 	0.039836
40.47 	0.047174 	4918 	0.046816
40.51 	0.040024 	4922 	0.039667
40.55 	0.046047 	4908 	0.045689
40.59 	0.039903 	4937 	0.039290
40.63 	0.041582 	4930 	0.041226
40.67 	0.042174 	4932 	0.041817
40.71 	0.043593 	4932 	0.042999
40.75 	0.041777 	4931 	0.041539
40.79 	0.045288 	4924 	0.044931
40.83 	0.043019 	4928 	0.042663
40.87 	0.044237 	4928 	0.043286
40.91 	0.038797 	4923 	0.038441
40.95 	0.046407 	4913 	0.046050
40.99 	0.044476 	4924 	0.044119
41.03 	0.040571 	4905 	0.039377
41.07 	0.041176 	4930 	0.040582
41.11 	0.036474 	4935 	0.036118
41.15 	0.043311 	4941 	0.042600
41.19 	0.041379 	4930 	0.040904
41.23 	0.038469 	4939 	0.037995
41.27 	0.044413 	4931 	0.044175
41.31 	0.044800 	4933 	0.043950
41.35 	0.039692 	4938 	0.039455
41.39 	0.042773 	4933 	0.042417
41.43 	0.039359 	4929 	0.038884
41.47 	0.037759 	4926 	0.037283
41.51 	0.040891 	4940 	0.040416
41.55 	0.039919 	4935 	0.039444
41.59 	0.041760 	4933 	0.040810
41.63 	0.041312 	4938 	0.040601
41.67 	0.042510 	4940 	0.042273
41.71 	0.046413 	4934 	0.046056
41.75 	0.038344 	4929 	0.037988
41.79 	0.041464 	4944 	0.040753
41.83 	0.041396 	4928 	0.040683
41.87 	0.042756 	4935 	0.041806
41.91 	0.038695 	4936 	0.038695
41.95 	0.036301 	4931 	0.036301
41.99 	0.046279 	4905 	0.046040
42.03 	0.034622 	4939 	0.034148
42.07 	0.037472 	4937 	0.037235
42.11 	0.037816 	4945 	0.037461
42.15 	0.042122 	4938 	0.041411
42.19 	0.041769 	4908 	0.041530
42.23 	0.038226 	4892 	0.037986
42.27 	0.044522 	4874 	0.043681
42.31 	0.039753 	4855 	0.039270
42.35 	0.038239 	4838 	0.037512
42.39 	0.039550 	4804 	0.039063
42.43 	0.045284 	4792 	0.044550
42.47 	0.037775 	4765 	0.037530
42.51 	0.038583 	4743 	0.038213
42.55 	0.037596 	4708 	0.036953
42.59 	0.041446 	4729 	0.041323
42.63 	0.039924 	4709 	0.039426
42.67 	0.038642 	4684 	0.038017
42.71 	0.035814 	4663 	0.035563
42.75 	0.038770 	4617 	0.038389
42.79 	0.037975 	4582 	0.037591
42.83 	0.038139 	4536 	0.037752
42.87 	0.038898 	4499 	0.038637
42.91 	0.036355 	4456 	0.035961
42.95 	0.041440 	4416 	0.040644
42.99 	0.046978 	4385 	0.046578
43.03 	0.033695 	4333 	0.033425
43.07 	0.039804 	4296 	0.039123
43.11 	0.039483 	4255 	0.039208
43.15 	0.038279 	4206 	0.037722
43.19 	0.035765 	4194 	0.035486
43.23 	0.038036 	4154 	0.037613
43.27 	0.041900 	4105 	0.041472
43.31 	0.036283 	4079 	0.035853
43.35 	0.042907 	4032 	0.042035
43.39 	0.044228 	4002 	0.043935
43.43 	0.040152 	3960 	0.039560
43.47 	0.038511 	3921 	0.038361
43.51 	0.036884 	3877 	0.036733
43.55 	0.035425 	2964 	0.035030
43.59 	0.036082 	1746 	0.036082
43.63 	0.051948 	1001 	0.050778
43.67 	0.027888 	502 	0.027888
43.71 	0.041841 	239 	0.041841
43.75 	0.000000 	16 	0.000000