File: Example_Data/25SC_s1_0023.004.dat
#F C:\frames\spec\25SC_s1_0023.004
#C title =s:23 frm:4 25SC_s1
#C wavelength =0.15406

#S 1  fr_average C:\frames\spec\25SC_s1_0023.004 C:\win32app\speccom\mask.axs chi 0 180 0 360 0.02
#C 2 theta =0.000000 to 180 deg
#C   q   =0.000000 to 81.568 nm^-1
#C  chi  =0.000000 to 360 deg
#C collumns:
#C  1 position (2theta or chi in degrees)
#C  2 average intensity (sum of all counts in the region divided with number of pixels)
#C  3 Number of pixels in region)
#C  4 error (sum of sqrt(intensity) for all pixels divided by number)
#N 4
#L TTh  Int  N_pix  Err
32.99 	0.065574 	61 	0.065574
33.03 	0.062545 	1391 	0.061703
33.07 	0.055610 	2050 	0.053562
33.11 	0.072121 	2579 	0.069585
33.15 	0.057352 	2999 	0.056766
33.19 	0.059844 	3342 	0.058968
33.23 	0.055351 	3523 	0.053522
33.27 	0.049587 	3630 	0.048941
33.31 	0.052459 	3660 	0.051499
33.35 	0.056849 	3694 	0.056056
33.39 	0.058193 	3729 	0.057381
33.43 	0.061154 	3761 	0.060531
33.47 	0.055556 	3798 	0.054784
33.51 	0.061337 	3815 	0.060108
33.55 	0.058288 	3843 	0.057526
33.59 	0.061082 	3880 	0.060479
33.63 	0.056647 	3919 	0.055451
33.67 	0.059939 	3954 	0.058606
33.71 	0.064151 	3975 	0.063119
33.75 	0.063016 	3999 	0.062430
33.79 	0.056917 	4041 	0.055733
33.83 	0.054321 	4050 	0.053742
33.87 	0.061299 	4111 	0.060563
33.91 	0.053989 	4149 	0.053565
33.95 	0.063382 	4181 	0.061678
33.99 	0.057857 	4200 	0.057299
34.03 	0.064562 	4244 	0.063458
34.07 	0.058341 	4268 	0.057518
34.11 	0.055091 	4302 	0.054410
34.15 	0.057492 	4331 	0.055734
34.19 	0.060293 	4362 	0.058526
34.23 	0.061006 	4393 	0.060206
34.27 	0.063320 	4422 	0.062790
34.31 	0.058771 	4458 	0.057851
34.35 	0.060437 	4484 	0.059501
34.39 	0.060195 	4502 	0.058894
34.43 	0.058603 	4539 	0.057055
34.47 	0.066638 	4592 	0.065341
34.51 	0.065132 	4606 	0.063733
34.55 	0.060306 	4643 	0.058918
34.59 	0.058824 	4675 	0.057946
34.63 	0.057537 	4710 	0.056293
34.67 	0.061801 	4741 	0.060442
34.71 	0.059169 	4766 	0.058063
34.75 	0.061148 	4808 	0.059666
34.79 	0.063640 	4824 	0.062527
34.83 	0.060263 	4862 	0.058938
34.87 	0.056491 	4868 	0.055890
34.91 	0.053871 	4882 	0.053511
34.95 	0.060327 	4890 	0.059129
34.99 	0.063508 	4897 	0.062671
35.03 	0.055230 	4943 	0.054637
35.07 	0.059312 	4940 	0.057652
35.11 	0.059834 	4947 	0.058986
35.15 	0.055499 	4937 	0.054669
35.19 	0.060097 	4942 	0.059267
35.23 	0.059656 	4945 	0.058472
35.27 	0.053759 	4948 	0.052930
35.31 	0.054328 	4933 	0.053972
35.35 	0.055848 	4942 	0.055018
35.39 	0.056016 	4945 	0.055305
35.43 	0.063045 	4933 	0.062807
35.47 	0.053944 	4931 	0.052281
35.51 	0.052375 	4926 	0.051781
35.55 	0.052781 	4945 	0.051951
35.59 	0.062083 	4945 	0.060780
35.63 	0.060287 	4943 	0.059320
35.67 	0.059085 	4942 	0.058493
35.71 	0.060563 	4937 	0.059377
35.75 	0.060231 	4931 	0.058786
35.79 	0.057178 	4932 	0.056821
35.83 	0.061059 	4946 	0.060230
35.87 	0.057282 	4923 	0.057163
35.91 	0.056830 	4927 	0.055621
35.95 	0.056742 	4917 	0.055312
35.99 	0.054869 	4939 	0.054276
36.03 	0.057253 	4943 	0.056423
36.07 	0.056489 	4939 	0.055303
36.11 	0.055184 	4929 	0.054451
36.15 	0.055274 	4939 	0.054207
36.19 	0.060526 	4940 	0.059815
36.23 	0.059574 	4935 	0.058269
36.27 	0.057056 	4925 	0.056223
36.31 	0.061485 	4928 	0.060772
36.35 	0.057821 	4929 	0.056514
36.39 	0.060354 	4921 	0.059263
36.43 	0.061891 	4928 	0.060703
36.47 	0.059968 	4936 	0.058899
36.51 	0.056558 	4933 	0.054658
36.55 	0.061295 	4927 	0.060582
36.59 	0.054464 	4939 	0.053278
36.63 	0.054958 	4931 	0.054127
36.67 	0.053753 	4930 	0.053020
36.71 	0.053241 	4921 	0.052527
36.75 	0.055218 	4944 	0.054389
36.79 	0.054867 	4921 	0.054153
36.83 	0.056358 	4915 	0.056001
36.87 	0.057443 	4944 	0.056851
36.91 	0.049787 	4941 	0.048958
36.95 	0.058788 	4933 	0.057363
36.99 	0.053293 	4935 	0.052561
37.03 	0.050975 	4924 	0.049904
37.07 	0.052685 	4935 	0.052329
37.11 	0.053698 	4935 	0.053105
37.15 	0.059890 	4909 	0.058935
37.19 	0.057259 	4925 	0.056526
37.23 	0.057950 	4918 	0.056978
37.27 	0.053739 	4894 	0.052423
37.31 	0.051266 	4935 	0.050673
37.35 	0.053058 	4938 	0.052228
37.39 	0.052525 	4931 	0.051931
37.43 	0.054339 	4932 	0.053508
37.47 	0.057010 	4929 	0.055564
37.51 	0.053923 	4933 	0.053329
37.55 	0.047262 	4930 	0.046430
37.59 	0.055544 	4915 	0.054710
37.63 	0.053669 	4919 	0.053074
37.67 	0.059951 	4904 	0.058279
37.71 	0.053966 	4929 	0.052897
37.75 	0.051822 	4940 	0.051110
37.79 	0.055375 	4930 	0.054662
37.83 	0.060366 	4920 	0.058818
37.87 	0.052642 	4939 	0.051812
37.91 	0.051927 	4930 	0.050976
37.95 	0.049177 	4921 	0.048463
37.99 	0.056393 	4912 	0.055319
38.03 	0.058260 	4909 	0.056948
38.07 	0.058668 	4909 	0.057435
38.11 	0.059372 	4935 	0.058304
38.15 	0.055917 	4918 	0.055679
38.19 	0.059635 	4930 	0.058447
38.23 	0.057513 	4938 	0.056920
38.27 	0.062677 	4930 	0.060658
38.31 	0.061295 	4927 	0.060205
38.35 	0.059862 	4928 	0.059010
38.39 	0.065798 	4909 	0.064585
38.43 	0.060618 	4916 	0.059188
38.47 	0.068677 	4907 	0.067364
38.51 	0.064882 	4932 	0.063576
38.55 	0.067666 	4936 	0.065767
38.59 	0.053006 	4924 	0.052530
38.63 	0.055443 	4924 	0.054491
38.67 	0.057322 	4937 	0.056472
38.71 	0.057271 	4924 	0.055843
38.75 	0.054394 	4927 	0.053562
38.79 	0.055736 	4934 	0.054786
38.83 	0.049400 	4919 	0.048567
38.87 	0.054368 	4911 	0.053056
38.91 	0.051601 	4903 	0.050884
38.95 	0.052460 	4918 	0.051746
38.99 	0.054487 	4937 	0.053419
39.03 	0.051885 	4934 	0.050678
39.07 	0.057271 	4924 	0.056319
39.11 	0.052728 	4931 	0.051777
39.15 	0.052899 	4915 	0.052303
39.19 	0.053285 	4917 	0.052570
39.23 	0.052792 	4925 	0.051959
39.27 	0.054990 	4910 	0.053896
39.31 	0.048935 	4884 	0.048096
39.35 	0.050253 	4935 	0.049304
39.39 	0.047880 	4929 	0.047286
39.43 	0.054328 	4933 	0.053734
39.47 	0.052813 	4923 	0.051742
39.51 	0.047522 	4924 	0.047046
39.55 	0.053060 	4919 	0.052345
39.59 	0.050081 	4912 	0.049346
39.63 	0.055872 	4922 	0.055158
39.67 	0.054346 	4913 	0.053511
39.71 	0.050868 	4895 	0.049911
39.75 	0.058847 	4928 	0.057045
39.79 	0.053999 	4926 	0.053405
39.83 	0.056344 	4934 	0.055394
39.87 	0.061929 	4925 	0.061096
39.91 	0.051402 	4922 	0.050688
39.95 	0.051068 	4915 	0.050591
39.99 	0.056569 	4932 	0.055738
40.03 	0.055398 	4928 	0.054566
40.07 	0.056267 	4923 	0.055910
40.11 	0.055126 	4916 	0.054153
40.15 	0.056585 	4913 	0.055988
40.19 	0.050923 	4929 	0.050448
40.23 	0.056975 	4932 	0.055886
40.27 	0.059145 	4937 	0.058433
40.31 	0.050618 	4939 	0.050143
40.35 	0.055702 	4919 	0.054869
40.39 	0.055567 	4931 	0.054616
40.43 	0.053840 	4922 	0.052769
40.47 	0.052867 	4918 	0.051537
40.51 	0.053230 	4922 	0.052873
40.55 	0.050733 	4908 	0.050495
40.59 	0.046182 	4937 	0.045114
40.63 	0.051116 	4930 	0.050403
40.67 	0.054745 	4932 	0.054032
40.71 	0.055150 	4932 	0.053962
40.75 	0.048063 	4931 	0.047469
40.79 	0.051178 	4924 	0.050702
40.83 	0.049107 	4928 	0.048137
40.87 	0.047484 	4928 	0.047008
40.91 	0.053626 	4923 	0.053031
40.95 	0.054549 	4913 	0.053099
40.99 	0.055443 	4924 	0.054491
41.03 	0.046075 	4905 	0.045359
41.07 	0.051927 	4930 	0.050739
41.11 	0.049443 	4935 	0.049087
41.15 	0.049383 	4941 	0.048671
41.19 	0.047059 	4930 	0.046584
41.23 	0.051832 	4939 	0.051121
41.27 	0.048672 	4931 	0.047959
41.31 	0.049057 	4933 	0.048582
41.35 	0.047793 	4938 	0.047674
41.39 	0.052098 	4933 	0.051386
41.43 	0.056807 	4929 	0.056331
41.47 	0.048721 	4926 	0.047889
41.51 	0.054251 	4940 	0.053777
41.55 	0.050253 	4935 	0.049778
41.59 	0.046219 	4933 	0.045744
41.63 	0.047995 	4938 	0.047283
41.67 	0.043320 	4940 	0.042490
41.71 	0.044183 	4934 	0.043115
41.75 	0.046865 	4929 	0.046509
41.79 	0.047532 	4944 	0.046584
41.83 	0.051339 	4928 	0.050626
41.87 	0.043566 	4935 	0.042973
41.91 	0.044571 	4936 	0.043720
41.95 	0.049280 	4931 	0.048092
41.99 	0.042813 	4905 	0.041500
42.03 	0.046771 	4939 	0.046178
42.07 	0.046182 	4937 	0.045470
42.11 	0.048736 	4945 	0.047670
42.15 	0.049413 	4938 	0.049057
42.19 	0.045844 	4908 	0.045008
42.23 	0.052330 	4892 	0.051732
42.27 	0.052729 	4874 	0.052128
42.31 	0.048816 	4855 	0.047488
42.35 	0.052294 	4838 	0.051205
42.39 	0.046003 	4804 	0.045150
42.43 	0.048205 	4792 	0.047227
42.47 	0.043442 	4765 	0.043196
42.51 	0.047017 	4743 	0.046523
42.55 	0.047579 	4708 	0.046708
42.59 	0.052019 	4729 	0.051008
42.63 	0.047356 	4709 	0.046983
42.67 	0.046328 	4684 	0.045432
42.71 	0.045679 	4663 	0.044925
42.75 	0.039853 	4617 	0.039472
42.79 	0.047141 	4582 	0.046757
42.83 	0.051367 	4536 	0.050592
42.87 	0.049567 	4499 	0.048785
42.91 	0.047576 	4456 	0.046919
42.95 	0.045063 	4416 	0.044002
42.99 	0.050171 	4385 	0.049637
43.03 	0.042696 	4333 	0.042425
43.07 	0.047952 	4296 	0.046997
43.11 	0.046769 	4255 	0.045942
43.15 	0.037328 	4206 	0.036771
43.19 	0.052456 	4194 	0.051339
43.23 	0.045017 	4154 	0.044312
43.27 	0.050670 	4105 	0.050242
43.31 	0.047806 	4079 	0.047231
43.35 	0.049851 	4032 	0.049415
43.39 	0.052474 	4002 	0.051596
43.43 	0.049495 	3960 	0.048903
43.47 	0.053813 	3921 	0.053365
43.51 	0.047201 	3877 	0.046748
43.55 	0.043522 	2964 	0.043325
43.59 	0.044101 	1746 	0.043765
43.63 	0.040959 	1001 	0.040959
43.67 	0.039841 	502 	0.039841
43.71 	0.029289 	239 	0.029289
43.75 	0.062500 	16 	0.062500