File: Example_Data/25SC_s1_0007.004.dat
#F C:\frames\spec\25SC_s1_0007.004
#C title =s:7 frm:4 25SC_s1
#C wavelength =0.15406

#S 1  fr_average C:\frames\spec\25SC_s1_0007.004 C:\win32app\speccom\mask.axs chi 0 180 0 360 0.02
#C 2 theta =0.000000 to 180 deg
#C   q   =0.000000 to 81.568 nm^-1
#C  chi  =0.000000 to 360 deg
#C collumns:
#C  1 position (2theta or chi in degrees)
#C  2 average intensity (sum of all counts in the region divided with number of pixels)
#C  3 Number of pixels in region)
#C  4 error (sum of sqrt(intensity) for all pixels divided by number)
#N 4
#L TTh  Int  N_pix  Err
32.99 	0.049180 	61 	0.049180
33.03 	0.051761 	1391 	0.050077
33.07 	0.059024 	2050 	0.057263
33.11 	0.058550 	2579 	0.057868
33.15 	0.061020 	2999 	0.059458
33.19 	0.059545 	3342 	0.058494
33.23 	0.051944 	3523 	0.051446
33.27 	0.061433 	3630 	0.059980
33.31 	0.060383 	3660 	0.059422
33.35 	0.060368 	3694 	0.059892
33.39 	0.065165 	3729 	0.063751
33.43 	0.063015 	3761 	0.062236
33.47 	0.058978 	3798 	0.057745
33.51 	0.058716 	3815 	0.056515
33.55 	0.059849 	3843 	0.059392
33.59 	0.060825 	3880 	0.059768
33.63 	0.060730 	3919 	0.059385
33.67 	0.057663 	3954 	0.056922
33.71 	0.060377 	3975 	0.058904
33.75 	0.057014 	3999 	0.056575
33.79 	0.059144 	4041 	0.058105
33.83 	0.065185 	4050 	0.063450
33.87 	0.061056 	4111 	0.059488
33.91 	0.057845 	4149 	0.056269
33.95 	0.063860 	4181 	0.063020
33.99 	0.052381 	4200 	0.050986
34.03 	0.061263 	4244 	0.060573
34.07 	0.062090 	4268 	0.060969
34.11 	0.066248 	4302 	0.065295
34.15 	0.051489 	4331 	0.051084
34.19 	0.061669 	4362 	0.060460
34.23 	0.055088 	4393 	0.054154
34.27 	0.065129 	4422 	0.064202
34.31 	0.059668 	4458 	0.058070
34.35 	0.061106 	4484 	0.059125
34.39 	0.065304 	4502 	0.064242
34.43 	0.056620 	4539 	0.055438
34.47 	0.059233 	4592 	0.058468
34.51 	0.061007 	4606 	0.060117
34.55 	0.059875 	4643 	0.058613
34.59 	0.062888 	4675 	0.061865
34.63 	0.060297 	4710 	0.059924
34.67 	0.058426 	4741 	0.057418
34.71 	0.065883 	4766 	0.064777
34.75 	0.061356 	4808 	0.060625
34.79 	0.057214 	4824 	0.056121
34.83 	0.066434 	4862 	0.064867
34.87 	0.066146 	4868 	0.064943
34.91 	0.062474 	4882 	0.061135
34.95 	0.062168 	4890 	0.060970
34.99 	0.058607 	4897 	0.057172
35.03 	0.061501 	4943 	0.060079
35.07 	0.062146 	4940 	0.061553
35.11 	0.052557 	4947 	0.052202
35.15 	0.056715 	4937 	0.056121
35.19 	0.053420 	4942 	0.051760
35.23 	0.066127 	4945 	0.065061
35.27 	0.062045 	4948 	0.060842
35.31 	0.062031 	4933 	0.060725
35.35 	0.062525 	4942 	0.061696
35.39 	0.062083 	4945 	0.061609
35.43 	0.063045 	4933 	0.061620
35.47 	0.059826 	4931 	0.058638
35.51 	0.061916 	4926 	0.060827
35.55 	0.064712 	4945 	0.063883
35.59 	0.057027 	4945 	0.056080
35.63 	0.066356 	4943 	0.065527
35.67 	0.056455 	4942 	0.055270
35.71 	0.062386 	4937 	0.061299
35.75 	0.064084 	4931 	0.062778
35.79 	0.058191 	4932 	0.057598
35.83 	0.063283 	4946 	0.062573
35.87 	0.060532 	4923 	0.059104
35.91 	0.059265 	4927 	0.057839
35.95 	0.064877 	4917 	0.063309
35.99 	0.069447 	4939 	0.067787
36.03 	0.061703 	4943 	0.060025
36.07 	0.060539 	4939 	0.060301
36.11 	0.058835 	4929 	0.058122
36.15 	0.057299 	4939 	0.056232
36.19 	0.061741 	4940 	0.061267
36.23 	0.066667 	4935 	0.064847
36.27 	0.055431 	4925 	0.054718
36.31 	0.061891 	4928 	0.060940
36.35 	0.059038 	4929 	0.057612
36.39 	0.065434 	4921 	0.063172
36.43 	0.061485 	4928 	0.060039
36.47 	0.063614 	4936 	0.062902
36.51 	0.055950 	4933 	0.055000
36.55 	0.054191 	4927 	0.053002
36.59 	0.060741 	4939 	0.059417
36.63 	0.063679 	4931 	0.062491
36.67 	0.058824 	4930 	0.057873
36.71 	0.058728 	4921 	0.057637
36.75 	0.061489 	4944 	0.060896
36.79 	0.057102 	4921 	0.056130
36.83 	0.055748 	4915 	0.054556
36.87 	0.054409 	4944 	0.053580
36.91 	0.056871 	4941 	0.055903
36.95 	0.061220 	4933 	0.060508
36.99 	0.063830 	4935 	0.062524
37.03 	0.059098 	4924 	0.058503
37.07 	0.054306 	4935 	0.053119
37.11 	0.058561 	4935 	0.057493
37.15 	0.060297 	4909 	0.059343
37.19 	0.062538 	4925 	0.061230
37.23 	0.060797 	4918 	0.060202
37.27 	0.061504 	4894 	0.060187
37.31 	0.059980 	4935 	0.058674
37.35 	0.057918 	4938 	0.056969
37.39 	0.063273 	4931 	0.062204
37.43 	0.056975 	4932 	0.056262
37.47 	0.056807 	4929 	0.056094
37.51 	0.059396 	4933 	0.058446
37.55 	0.055375 	4930 	0.053692
37.59 	0.057375 	4915 	0.056303
37.63 	0.062411 	4919 	0.061339
37.67 	0.054038 	4904 	0.053560
37.71 	0.059241 	4929 	0.058409
37.75 	0.053644 	4940 	0.052458
37.79 	0.056187 	4930 	0.054860
37.83 	0.051423 	4920 	0.050470
37.87 	0.058109 	4939 	0.057872
37.91 	0.051318 	4930 	0.050606
37.95 	0.056899 	4921 	0.056284
37.99 	0.052524 	4912 	0.052167
38.03 	0.052964 	4909 	0.052606
38.07 	0.055205 	4909 	0.054489
38.11 	0.057953 	4935 	0.057241
38.15 	0.057544 	4918 	0.056114
38.19 	0.059432 	4930 	0.058224
38.23 	0.064601 	4938 	0.063652
38.27 	0.062677 	4930 	0.062202
38.31 	0.068805 	4927 	0.067497
38.35 	0.062703 	4928 	0.061633
38.39 	0.070686 	4909 	0.069732
38.43 	0.071806 	4916 	0.070119
38.47 	0.077644 	4907 	0.076212
38.51 	0.060624 	4932 	0.059437
38.55 	0.068679 	4936 	0.066879
38.59 	0.067831 	4924 	0.065532
38.63 	0.068034 	4924 	0.066607
38.67 	0.062184 	4937 	0.061234
38.71 	0.067222 	4924 	0.065556
38.75 	0.059468 	4927 	0.057923
38.79 	0.052696 	4934 	0.051983
38.83 	0.056312 	4919 	0.055360
38.87 	0.061698 	4911 	0.060983
38.91 	0.055272 	4903 	0.054794
38.95 	0.058560 	4918 	0.057488
38.99 	0.055297 	4937 	0.054585
39.03 	0.056952 	4934 	0.056239
39.07 	0.052803 	4924 	0.051970
39.11 	0.057595 	4931 	0.055694
39.15 	0.061445 	4915 	0.060134
39.19 	0.052471 	4917 	0.051518
39.23 	0.049746 	4925 	0.049033
39.27 	0.053564 	4910 	0.052848
39.31 	0.056102 	4884 	0.055262
39.35 	0.051469 	4935 	0.050519
39.39 	0.058430 	4929 	0.057004
39.43 	0.055950 	4933 	0.055356
39.47 	0.055251 	4923 	0.054299
39.51 	0.059911 	4924 	0.058959
39.55 	0.051637 	4919 	0.050803
39.59 	0.050489 	4912 	0.049654
39.63 	0.054246 	4922 	0.053651
39.67 	0.056992 	4913 	0.056038
39.71 	0.057814 	4895 	0.056598
39.75 	0.057630 	4928 	0.056798
39.79 	0.052984 	4926 	0.052033
39.83 	0.056952 	4934 	0.056002
39.87 	0.060102 	4925 	0.059507
39.91 	0.060341 	4922 	0.059270
39.95 	0.055341 	4915 	0.054745
39.99 	0.060016 	4932 	0.059185
40.03 	0.056209 	4928 	0.055496
40.07 	0.060938 	4923 	0.059729
40.11 	0.056347 	4916 	0.055870
40.15 	0.050071 	4913 	0.049475
40.19 	0.052952 	4929 	0.052239
40.23 	0.056975 	4932 	0.056025
40.27 	0.056309 	4937 	0.055479
40.31 	0.050820 	4939 	0.050464
40.35 	0.056516 	4919 	0.054948
40.39 	0.051105 	4931 	0.050392
40.43 	0.050386 	4922 	0.049434
40.47 	0.057950 	4918 	0.056878
40.51 	0.054449 	4922 	0.053378
40.55 	0.052771 	4908 	0.051816
40.59 	0.051651 	4937 	0.050445
40.63 	0.054970 	4930 	0.054613
40.67 	0.050081 	4932 	0.049250
40.71 	0.050081 	4932 	0.049250
40.75 	0.053742 	4931 	0.052791
40.79 	0.052193 	4924 	0.051599
40.83 	0.054789 	4928 	0.053838
40.87 	0.054789 	4928 	0.053700
40.91 	0.054235 	4923 	0.053759
40.95 	0.053735 	4913 	0.053139
40.99 	0.051381 	4924 	0.050548
41.03 	0.049337 	4905 	0.048979
41.07 	0.053753 	4930 	0.052307
41.11 	0.056332 	4935 	0.054671
41.15 	0.053228 	4941 	0.052004
41.19 	0.052535 	4930 	0.052179
41.23 	0.049403 	4939 	0.049166
41.27 	0.049888 	4931 	0.048938
41.31 	0.057977 	4933 	0.057146
41.35 	0.051033 	4938 	0.049708
41.39 	0.053517 	4933 	0.052686
41.43 	0.049909 	4929 	0.048839
41.47 	0.050142 	4926 	0.049548
41.51 	0.053036 	4940 	0.052681
41.55 	0.055117 	4935 	0.054048
41.59 	0.044192 	4933 	0.043598
41.63 	0.049413 	4938 	0.048938
41.67 	0.052632 	4940 	0.051920
41.71 	0.050872 	4934 	0.050397
41.75 	0.045040 	4929 	0.044445
41.79 	0.050769 	4944 	0.050394
41.83 	0.048904 	4928 	0.048429
41.87 	0.048430 	4935 	0.047599
41.91 	0.048825 	4936 	0.048232
41.95 	0.049483 	4931 	0.049008
41.99 	0.048522 	4905 	0.048044
42.03 	0.047783 	4939 	0.046953
42.07 	0.052461 	4937 	0.051512
42.11 	0.050152 	4945 	0.049915
42.15 	0.051438 	4938 	0.050726
42.19 	0.042176 	4908 	0.041699
42.23 	0.047220 	4892 	0.046980
42.27 	0.049856 	4874 	0.049135
42.31 	0.047992 	4855 	0.047630
42.35 	0.046300 	4838 	0.045816
42.39 	0.052040 	4804 	0.051430
42.43 	0.047997 	4792 	0.047385
42.47 	0.045331 	4765 	0.044962
42.51 	0.046384 	4743 	0.046137
42.55 	0.044180 	4708 	0.043434
42.59 	0.048002 	4729 	0.047630
42.63 	0.050117 	4709 	0.049619
42.67 	0.048036 	4684 	0.047411
42.71 	0.048681 	4663 	0.047550
42.75 	0.049599 	4617 	0.048457
42.79 	0.047141 	4582 	0.046118
42.83 	0.047399 	4536 	0.046086
42.87 	0.047344 	4499 	0.046042
42.91 	0.043761 	4456 	0.043235
42.95 	0.043252 	4416 	0.042456
42.99 	0.043786 	4385 	0.042583
43.03 	0.044311 	4333 	0.043365
43.07 	0.047020 	4296 	0.046475
43.11 	0.049824 	4255 	0.049411
43.15 	0.043272 	4206 	0.043272
43.19 	0.043157 	4194 	0.042459
43.23 	0.050794 	4154 	0.050653
43.27 	0.045554 	4105 	0.045412
43.31 	0.047070 	4079 	0.046209
43.35 	0.049355 	4032 	0.049065
43.39 	0.051974 	4002 	0.051096
43.43 	0.046970 	3960 	0.046526
43.47 	0.052793 	3921 	0.052195
43.51 	0.051070 	3877 	0.050617
43.55 	0.047233 	2964 	0.047036
43.59 	0.044101 	1746 	0.042759
43.63 	0.048951 	1001 	0.048366
43.67 	0.049801 	502 	0.049801
43.71 	0.058577 	239 	0.058577
43.75 	0.062500 	16 	0.062500