File: Example_Data/25SC_s1_0022.000.dat
#F C:\frames\spec\25SC_s1_0022.000
#C title =s:22 frm:0 25SC_s1
#C wavelength =0.15406

#S 1  fr_average C:\frames\spec\25SC_s1_0022.000 C:\win32app\speccom\mask.axs chi 0 180 0 360 0.02
#C 2 theta =0.000000 to 180 deg
#C   q   =0.000000 to 81.568 nm^-1
#C  chi  =0.000000 to 360 deg
#C collumns:
#C  1 position (2theta or chi in degrees)
#C  2 average intensity (sum of all counts in the region divided with number of pixels)
#C  3 Number of pixels in region)
#C  4 error (sum of sqrt(intensity) for all pixels divided by number)
#N 4
#L TTh  Int  N_pix  Err
32.99 	0.065574 	61 	0.065574
33.03 	0.053918 	1391 	0.053918
33.07 	0.056098 	2050 	0.055240
33.11 	0.051183 	2579 	0.050728
33.15 	0.060353 	2999 	0.059377
33.19 	0.063435 	3342 	0.062559
33.23 	0.059892 	3523 	0.059227
33.27 	0.061983 	3630 	0.061150
33.31 	0.058470 	3660 	0.057670
33.35 	0.067136 	3694 	0.065392
33.39 	0.062751 	3729 	0.061652
33.43 	0.058229 	3761 	0.058073
33.47 	0.056345 	3798 	0.055395
33.51 	0.064744 	3815 	0.064130
33.55 	0.061931 	3843 	0.060559
33.59 	0.055928 	3880 	0.054267
33.63 	0.061750 	3919 	0.060555
33.67 	0.058422 	3954 	0.058126
33.71 	0.062893 	3975 	0.061567
33.75 	0.061015 	3999 	0.060429
33.79 	0.058649 	4041 	0.057344
33.83 	0.058765 	4050 	0.057753
33.87 	0.062515 	4111 	0.061233
33.91 	0.062666 	4149 	0.061113
33.95 	0.065295 	4181 	0.063754
33.99 	0.055000 	4200 	0.054163
34.03 	0.061027 	4244 	0.060061
34.07 	0.057873 	4268 	0.057049
34.11 	0.059740 	4302 	0.058514
34.15 	0.057723 	4331 	0.057182
34.19 	0.061669 	4362 	0.060595
34.23 	0.056453 	4393 	0.055787
34.27 	0.061284 	4422 	0.059960
34.31 	0.059444 	4458 	0.057845
34.35 	0.057538 	4484 	0.056623
34.39 	0.054198 	4502 	0.053548
34.43 	0.057942 	4539 	0.057555
34.47 	0.054660 	4592 	0.054022
34.51 	0.061007 	4606 	0.059333
34.55 	0.056429 	4643 	0.055399
34.59 	0.057754 	4675 	0.056626
34.63 	0.053503 	4710 	0.052633
34.67 	0.054208 	4741 	0.053343
34.71 	0.065464 	4766 	0.064112
34.75 	0.055740 	4808 	0.054888
34.79 	0.060531 	4824 	0.059924
34.83 	0.061086 	4862 	0.059861
34.87 	0.055464 	4868 	0.054502
34.91 	0.061450 	4882 	0.059991
34.95 	0.051125 	4890 	0.050406
34.99 	0.052481 	4897 	0.051644
35.03 	0.055027 	4943 	0.054316
35.07 	0.058502 	4940 	0.057672
35.11 	0.053164 	4947 	0.052216
35.15 	0.064412 	4937 	0.062869
35.19 	0.056455 	4942 	0.056099
35.23 	0.061881 	4945 	0.060933
35.27 	0.059014 	4948 	0.058067
35.31 	0.054125 	4933 	0.053650
35.35 	0.062930 	4942 	0.061370
35.39 	0.054803 	4945 	0.054092
35.43 	0.057774 	4933 	0.056943
35.47 	0.060637 	4931 	0.059092
35.51 	0.055420 	4926 	0.054469
35.55 	0.055410 	4945 	0.054580
35.59 	0.062690 	4945 	0.062097
35.63 	0.058669 	4943 	0.057484
35.67 	0.060299 	4942 	0.058640
35.71 	0.058740 	4937 	0.057415
35.75 	0.061651 	4931 	0.060819
35.79 	0.056569 	4932 	0.056094
35.83 	0.060655 	4946 	0.059471
35.87 	0.053423 	4923 	0.052828
35.91 	0.061092 	4927 	0.060379
35.95 	0.057962 	4917 	0.057366
35.99 	0.058514 	4939 	0.057091
36.03 	0.059073 	4943 	0.058599
36.07 	0.061348 	4939 	0.060024
36.11 	0.058227 	4929 	0.057633
36.15 	0.053857 	4939 	0.053145
36.19 	0.055668 	4940 	0.054344
36.23 	0.060385 	4935 	0.059673
36.27 	0.057665 	4925 	0.056832
36.31 	0.056818 	4928 	0.055134
36.35 	0.062487 	4929 	0.062012
36.39 	0.063402 	4921 	0.062449
36.43 	0.054992 	4928 	0.053803
36.47 	0.055511 	4936 	0.054442
36.51 	0.056963 	4933 	0.056251
36.55 	0.059874 	4927 	0.058329
36.59 	0.059121 	4939 	0.058765
36.63 	0.058000 	4931 	0.057169
36.67 	0.062475 	4930 	0.061049
36.71 	0.058321 	4921 	0.056536
36.75 	0.061489 	4944 	0.060284
36.79 	0.060760 	4921 	0.059927
36.83 	0.062055 	4915 	0.060744
36.87 	0.059668 	4944 	0.058602
36.91 	0.064562 	4941 	0.063613
36.95 	0.054531 	4933 	0.053818
36.99 	0.054103 	4935 	0.052778
37.03 	0.054021 	4924 	0.053188
37.07 	0.063222 	4935 	0.061916
37.11 	0.057751 	4935 	0.056564
37.15 	0.066409 	4909 	0.065335
37.19 	0.058071 	4925 	0.056406
37.23 	0.058154 	4918 	0.057300
37.27 	0.055783 	4894 	0.055184
37.31 	0.055117 	4935 	0.054523
37.35 	0.057918 	4938 	0.056851
37.39 	0.062462 	4931 	0.061393
37.43 	0.060219 	4932 	0.058912
37.47 	0.053763 	4929 	0.053526
37.51 	0.051895 	4933 	0.051302
37.55 	0.059229 	4930 	0.058635
37.59 	0.055137 	4915 	0.053707
37.63 	0.053466 	4919 	0.053109
37.67 	0.057504 	4904 	0.057026
37.71 	0.059038 	4929 	0.058325
37.75 	0.057287 	4940 	0.056102
37.79 	0.053347 	4930 	0.052277
37.83 	0.057724 	4920 	0.056414
37.87 	0.059526 	4939 	0.058340
37.91 	0.053144 	4930 	0.051956
37.95 	0.053241 	4921 	0.052408
37.99 	0.053542 	4912 	0.052708
38.03 	0.053168 	4909 	0.052332
38.07 	0.052353 	4909 	0.051518
38.11 	0.056940 	4935 	0.055872
38.15 	0.053477 	4918 	0.052881
38.19 	0.055781 	4930 	0.054117
38.23 	0.059133 	4938 	0.057710
38.27 	0.061258 	4930 	0.060307
38.31 	0.063730 	4927 	0.062185
38.35 	0.067573 	4928 	0.066265
38.39 	0.076187 	4909 	0.074974
38.43 	0.072417 	4916 	0.071344
38.47 	0.070512 	4907 	0.069059
38.51 	0.074209 	4932 	0.072903
38.55 	0.080024 	4936 	0.077968
38.59 	0.079204 	4924 	0.076468
38.63 	0.072299 	4924 	0.070614
38.67 	0.076970 	4937 	0.075783
38.71 	0.075751 	4924 	0.073134
38.75 	0.081388 	4927 	0.079724
38.79 	0.075801 	4934 	0.074257
38.83 	0.073389 	4919 	0.072436
38.87 	0.062105 	4911 	0.061151
38.91 	0.061391 	4903 	0.060555
38.95 	0.060187 	4918 	0.059472
38.99 	0.054892 	4937 	0.053705
39.03 	0.054114 	4934 	0.053402
39.07 	0.051990 	4924 	0.051019
39.11 	0.053336 	4931 	0.052861
39.15 	0.060834 	4915 	0.059623
39.19 	0.047387 	4917 	0.046434
39.23 	0.047513 	4925 	0.046918
39.27 	0.050713 	4910 	0.050355
39.31 	0.047707 	4884 	0.046867
39.35 	0.050456 	4935 	0.049506
39.39 	0.046257 	4929 	0.045663
39.43 	0.044192 	4933 	0.043480
39.47 	0.043876 	4923 	0.043638
39.51 	0.046101 	4924 	0.045744
39.55 	0.039642 	4919 	0.039047
39.59 	0.047842 	4912 	0.047365
39.63 	0.044088 	4922 	0.043612
39.67 	0.041319 	4913 	0.040961
39.71 	0.043105 	4895 	0.042627
39.75 	0.046469 	4928 	0.045518
39.79 	0.043646 	4926 	0.043289
39.83 	0.046413 	4934 	0.045700
39.87 	0.037970 	4925 	0.037494
39.91 	0.049777 	4922 	0.049419
39.95 	0.042930 	4915 	0.042691
39.99 	0.034672 	4932 	0.034434
40.03 	0.047890 	4928 	0.047414
40.07 	0.044688 	4923 	0.044450
40.11 	0.043328 	4916 	0.042970
40.15 	0.040301 	4913 	0.039586
40.19 	0.042199 	4929 	0.041605
40.23 	0.041363 	4932 	0.041006
40.27 	0.044764 	4937 	0.044289
40.31 	0.043531 	4939 	0.042938
40.35 	0.046554 	4919 	0.045840
40.39 	0.040357 	4931 	0.039644
40.43 	0.042056 	4922 	0.041342
40.47 	0.042090 	4918 	0.041018
40.51 	0.045307 	4922 	0.044474
40.55 	0.039935 	4908 	0.039457
40.59 	0.040916 	4937 	0.039966
40.63 	0.043408 	4930 	0.042913
40.67 	0.043998 	4932 	0.043761
40.71 	0.042985 	4932 	0.042628
40.75 	0.047860 	4931 	0.047148
40.79 	0.043054 	4924 	0.042698
40.83 	0.043628 	4928 	0.042558
40.87 	0.037946 	4928 	0.037233
40.91 	0.036563 	4923 	0.036444
40.95 	0.041115 	4913 	0.040758
40.99 	0.041024 	4924 	0.039765
41.03 	0.043425 	4905 	0.042709
41.07 	0.042191 	4930 	0.041597
41.11 	0.039311 	4935 	0.038955
41.15 	0.044121 	4941 	0.043528
41.19 	0.044625 	4930 	0.044031
41.23 	0.037457 	4939 	0.036983
41.27 	0.040560 	4931 	0.040322
41.31 	0.038111 	4933 	0.037992
41.35 	0.038275 	4938 	0.037800
41.39 	0.045003 	4933 	0.044291
41.43 	0.039562 	4929 	0.039324
41.47 	0.038368 	4926 	0.037892
41.51 	0.042915 	4940 	0.042322
41.55 	0.041743 	4935 	0.041387
41.59 	0.041354 	4933 	0.040998
41.63 	0.038680 	4938 	0.038205
41.67 	0.043927 	4940 	0.043196
41.71 	0.048034 	4934 	0.046946
41.75 	0.043214 	4929 	0.042619
41.79 	0.042880 	4944 	0.042031
41.83 	0.037135 	4928 	0.036283
41.87 	0.037285 	4935 	0.036691
41.91 	0.044976 	4936 	0.043908
41.95 	0.034273 	4931 	0.033441
41.99 	0.039755 	4905 	0.039636
42.03 	0.044138 	4939 	0.043783
42.07 	0.037675 	4937 	0.037437
42.11 	0.041860 	4945 	0.041604
42.15 	0.042122 	4938 	0.041529
42.19 	0.042584 	4908 	0.042225
42.23 	0.036590 	4892 	0.036351
42.27 	0.044932 	4874 	0.044452
42.31 	0.037899 	4855 	0.037416
42.35 	0.040513 	4838 	0.040149
42.39 	0.041216 	4804 	0.040972
42.43 	0.047579 	4792 	0.046846
42.47 	0.042812 	4765 	0.042320
42.51 	0.041324 	4743 	0.041201
42.55 	0.035259 	4708 	0.035259
42.59 	0.038486 	4729 	0.038238
42.63 	0.043109 	4709 	0.042363
42.67 	0.040777 	4684 	0.040527
42.71 	0.038173 	4663 	0.037922
42.75 	0.040502 	4617 	0.039614
42.79 	0.041030 	4582 	0.040519
42.83 	0.035053 	4536 	0.034665
42.87 	0.042676 	4499 	0.042025
42.91 	0.037702 	4456 	0.037571
42.95 	0.036232 	4416 	0.035812
42.99 	0.034664 	4385 	0.033862
43.03 	0.039926 	4333 	0.039521
43.07 	0.037709 	4296 	0.037437
43.11 	0.042303 	4255 	0.042028
43.15 	0.038279 	4206 	0.038139
43.19 	0.040296 	4194 	0.039597
43.23 	0.035147 	4154 	0.035147
43.27 	0.043849 	4105 	0.043135
43.31 	0.035303 	4079 	0.034872
43.35 	0.038690 	4032 	0.038545
43.39 	0.036982 	4002 	0.036835
43.43 	0.036616 	3960 	0.036172
43.47 	0.041061 	3921 	0.040912
43.51 	0.038432 	3877 	0.038130
43.55 	0.041498 	2964 	0.040510
43.59 	0.032646 	1746 	0.032311
43.63 	0.029970 	1001 	0.029970
43.67 	0.041833 	502 	0.041833
43.71 	0.037657 	239 	0.037657
43.75 	0.125000 	16 	0.125000