File: Example_Data/25SC_s1_0049.002.dat
#F C:\frames\spec\25SC_s1_0049.002
#C title =s:49 frm:2 25SC_s1
#C wavelength =0.15406

#S 1  fr_average C:\frames\spec\25SC_s1_0049.002 C:\win32app\speccom\mask.axs chi 0 180 0 360 0.02
#C 2 theta =0.000000 to 180 deg
#C   q   =0.000000 to 81.568 nm^-1
#C  chi  =0.000000 to 360 deg
#C collumns:
#C  1 position (2theta or chi in degrees)
#C  2 average intensity (sum of all counts in the region divided with number of pixels)
#C  3 Number of pixels in region)
#C  4 error (sum of sqrt(intensity) for all pixels divided by number)
#N 4
#L TTh  Int  N_pix  Err
32.99 	0.049180 	61 	0.049180
33.03 	0.049605 	1391 	0.049183
33.07 	0.057561 	2050 	0.056418
33.11 	0.061264 	2579 	0.060356
33.15 	0.055352 	2999 	0.054570
33.19 	0.062537 	3342 	0.061135
33.23 	0.060176 	3523 	0.059012
33.27 	0.053994 	3630 	0.053188
33.31 	0.053005 	3660 	0.052205
33.35 	0.065241 	3694 	0.063972
33.39 	0.053902 	3729 	0.052959
33.43 	0.052380 	3761 	0.052068
33.47 	0.062138 	3798 	0.061367
33.51 	0.056881 	3815 	0.055652
33.55 	0.057507 	3843 	0.056745
33.59 	0.054381 	3880 	0.053174
33.63 	0.059964 	3919 	0.059366
33.67 	0.061963 	3954 	0.060926
33.71 	0.054340 	3975 	0.053161
33.75 	0.061265 	3999 	0.060093
33.79 	0.064588 	4041 	0.063863
33.83 	0.059012 	4050 	0.058578
33.87 	0.051569 	4111 	0.050857
33.91 	0.057363 	4149 	0.056798
33.95 	0.057163 	4181 	0.056323
33.99 	0.050476 	4200 	0.049779
34.03 	0.063619 	4244 	0.062653
34.07 	0.062559 	4268 	0.061461
34.11 	0.061367 	4302 	0.060822
34.15 	0.056107 	4331 	0.055025
34.19 	0.055479 	4362 	0.054808
34.23 	0.054632 	4393 	0.054232
34.27 	0.056309 	4422 	0.055382
34.31 	0.051593 	4458 	0.051330
34.35 	0.054639 	4484 	0.053463
34.39 	0.062195 	4502 	0.059852
34.43 	0.057942 	4539 	0.056372
34.47 	0.051611 	4592 	0.050974
34.51 	0.056014 	4606 	0.055124
34.55 	0.054491 	4643 	0.053481
34.59 	0.057540 	4675 	0.056642
34.63 	0.052229 	4710 	0.051110
34.67 	0.053575 	4741 	0.052834
34.71 	0.059379 	4766 	0.058396
34.75 	0.057820 	4808 	0.056846
34.79 	0.055556 	4824 	0.054463
34.83 	0.055944 	4862 	0.055342
34.87 	0.059778 	4868 	0.058194
34.91 	0.054281 	4882 	0.053561
34.95 	0.053988 	4890 	0.052910
34.99 	0.057586 	4897 	0.056031
35.03 	0.048351 	4943 	0.047877
35.07 	0.058907 	4940 	0.057603
35.11 	0.056398 	4947 	0.055687
35.15 	0.056107 	4937 	0.055158
35.19 	0.061514 	4942 	0.060802
35.23 	0.062487 	4945 	0.061184
35.27 	0.055578 	4948 	0.054986
35.31 	0.059193 	4933 	0.057610
35.35 	0.054836 	4942 	0.054362
35.39 	0.053994 	4945 	0.052908
35.43 	0.059599 	4933 	0.058273
35.47 	0.060637 	4931 	0.058935
35.51 	0.057653 	4926 	0.056445
35.55 	0.053185 	4945 	0.052474
35.59 	0.057230 	4945 	0.056400
35.63 	0.060287 	4943 	0.059576
35.67 	0.056253 	4942 	0.055048
35.71 	0.056917 	4937 	0.055849
35.75 	0.062868 	4931 	0.061442
35.79 	0.057583 	4932 	0.056633
35.83 	0.058027 	4946 	0.057079
35.87 	0.058907 	4923 	0.058074
35.91 	0.058656 	4927 	0.057586
35.95 	0.061013 	4917 	0.059921
35.99 	0.055072 	4939 	0.054123
36.03 	0.057657 	4943 	0.056946
36.07 	0.053655 	4939 	0.052449
36.11 	0.051735 	4929 	0.050784
36.15 	0.057299 	4939 	0.056232
36.19 	0.050607 	4940 	0.049540
36.23 	0.060182 	4935 	0.058877
36.27 	0.053198 	4925 	0.052484
36.31 	0.058442 	4928 	0.057728
36.35 	0.057821 	4929 	0.056633
36.39 	0.052632 	4921 	0.051798
36.43 	0.065341 	4928 	0.063657
36.47 	0.063006 	4936 	0.062057
36.51 	0.056963 	4933 	0.055776
36.55 	0.054394 	4927 	0.053086
36.59 	0.054869 	4939 	0.054039
36.63 	0.055364 	4931 	0.054532
36.67 	0.057404 	4930 	0.056334
36.71 	0.052835 	4921 	0.052240
36.75 	0.062702 	4944 	0.061754
36.79 	0.052632 	4921 	0.052274
36.83 	0.058800 	4915 	0.058204
36.87 	0.054005 	4944 	0.053175
36.91 	0.046347 	4941 	0.045754
36.95 	0.048652 	4933 	0.048058
36.99 	0.051266 	4935 	0.050554
37.03 	0.058083 	4924 	0.057250
37.07 	0.051672 	4935 	0.050960
37.11 	0.053090 	4935 	0.052497
37.15 	0.051538 	4909 	0.050941
37.19 	0.057259 	4925 	0.056783
37.23 	0.054900 	4918 	0.054186
37.27 	0.055578 	4894 	0.054740
37.31 	0.053293 	4935 	0.052462
37.35 	0.054070 	4938 	0.053240
37.39 	0.048266 	4931 	0.047316
37.43 	0.051500 	4932 	0.050431
37.47 	0.049503 	4929 	0.048909
37.51 	0.053720 	4933 	0.052889
37.55 	0.050913 	4930 	0.049843
37.59 	0.053917 	4915 	0.053082
37.63 	0.046554 	4919 	0.045959
37.67 	0.048736 	4904 	0.048019
37.71 	0.046460 	4929 	0.045866
37.75 	0.049393 	4940 	0.048563
37.79 	0.052738 	4930 	0.051550
37.83 	0.054472 	4920 	0.053162
37.87 	0.051832 	4939 	0.050765
37.91 	0.049087 	4930 	0.048255
37.95 	0.060963 	4921 	0.060011
37.99 	0.053542 	4912 	0.053185
38.03 	0.052760 	4909 	0.052164
38.07 	0.049094 	4909 	0.048497
38.11 	0.052888 	4935 	0.052037
38.15 	0.051850 	4918 	0.050897
38.19 	0.054767 	4930 	0.053579
38.23 	0.052450 	4938 	0.051719
38.27 	0.058215 	4930 	0.057621
38.31 	0.060889 	4927 	0.059819
38.35 	0.059050 	4928 	0.058218
38.39 	0.065186 	4909 	0.064112
38.43 	0.062246 	4916 	0.061173
38.47 	0.063990 	4907 	0.062031
38.51 	0.067518 	4932 	0.066192
38.55 	0.063614 	4936 	0.062190
38.59 	0.061332 	4924 	0.059786
38.63 	0.060317 	4924 	0.059583
38.67 	0.055499 	4937 	0.054669
38.71 	0.051178 	4924 	0.050821
38.75 	0.056018 	4927 	0.055305
38.79 	0.054114 	4934 	0.053283
38.83 	0.050010 	4919 	0.049534
38.87 	0.052331 	4911 	0.051497
38.91 	0.045890 	4903 	0.045293
38.95 	0.049207 	4918 	0.048850
38.99 	0.047802 	4937 	0.046734
39.03 	0.043981 	4934 	0.043387
39.07 	0.048335 	4924 	0.047978
39.11 	0.044007 	4931 	0.043275
39.15 	0.051882 	4915 	0.051644
39.19 	0.046573 	4917 	0.046216
39.23 	0.042437 	4925 	0.041961
39.27 	0.049491 	4910 	0.048536
39.31 	0.042793 	4884 	0.042313
39.35 	0.048632 	4935 	0.048039
39.39 	0.044025 	4929 	0.043174
39.43 	0.045611 	4933 	0.045136
39.47 	0.049766 	4923 	0.048933
39.51 	0.044476 	4924 	0.043505
39.55 	0.041675 	4919 	0.041318
39.59 	0.042142 	4912 	0.041784
39.63 	0.041853 	4922 	0.041377
39.67 	0.045186 	4913 	0.044471
39.71 	0.044944 	4895 	0.044106
39.75 	0.046875 	4928 	0.046637
39.79 	0.045473 	4926 	0.044522
39.83 	0.044386 	4934 	0.044148
39.87 	0.050152 	4925 	0.049677
39.91 	0.048761 	4922 	0.048146
39.95 	0.044557 	4915 	0.043704
39.99 	0.041160 	4932 	0.040447
40.03 	0.043425 	4928 	0.042712
40.07 	0.043469 	4923 	0.042874
40.11 	0.044345 	4916 	0.043749
40.15 	0.044576 	4913 	0.043860
40.19 	0.037533 	4929 	0.037058
40.23 	0.038118 	4932 	0.037762
40.27 	0.047397 	4937 	0.046685
40.31 	0.042316 	4939 	0.041723
40.35 	0.048790 	4919 	0.048195
40.39 	0.042385 	4931 	0.041910
40.43 	0.045713 	4922 	0.045118
40.47 	0.041887 	4918 	0.041291
40.51 	0.041447 	4922 	0.041209
40.55 	0.042380 	4908 	0.041664
40.59 	0.042739 	4937 	0.042501
40.63 	0.041988 	4930 	0.041750
40.67 	0.042174 	4932 	0.041798
40.71 	0.039943 	4932 	0.039112
40.75 	0.042182 	4931 	0.040994
40.79 	0.041430 	4924 	0.040835
40.83 	0.042817 	4928 	0.041747
40.87 	0.043628 	4928 	0.043034
40.91 	0.042454 	4923 	0.041978
40.95 	0.041930 	4913 	0.041214
40.99 	0.040211 	4924 	0.039973
41.03 	0.042813 	4905 	0.042097
41.07 	0.043813 	4930 	0.043576
41.11 	0.043364 	4935 	0.042889
41.15 	0.041085 	4941 	0.040492
41.19 	0.043205 	4930 	0.042591
41.23 	0.043329 	4939 	0.043210
41.27 	0.046035 	4931 	0.045441
41.31 	0.044598 	4933 	0.044222
41.35 	0.043135 	4938 	0.042660
41.39 	0.042570 	4933 	0.041601
41.43 	0.043417 	4929 	0.042941
41.47 	0.039586 	4926 	0.039110
41.51 	0.038462 	4940 	0.037869
41.55 	0.040729 	4935 	0.040255
41.59 	0.036692 	4933 	0.036335
41.63 	0.047388 	4938 	0.046913
41.67 	0.038866 	4940 	0.038511
41.71 	0.043170 	4934 	0.042220
41.75 	0.038953 	4929 	0.038478
41.79 	0.040858 	4944 	0.039910
41.83 	0.040179 	4928 	0.039584
41.87 	0.041337 	4935 	0.040625
41.91 	0.035251 	4936 	0.034895
41.95 	0.038126 	4931 	0.037770
41.99 	0.040163 	4905 	0.039566
42.03 	0.042316 	4939 	0.041842
42.07 	0.039295 	4937 	0.038465
42.11 	0.042872 	4945 	0.042516
42.15 	0.043337 	4938 	0.043100
42.19 	0.038509 	4908 	0.038389
42.23 	0.031889 	4892 	0.031530
42.27 	0.036725 	4874 	0.036605
42.31 	0.038517 	4855 	0.038034
42.35 	0.037619 	4838 	0.037377
42.39 	0.039134 	4804 	0.038768
42.43 	0.037771 	4792 	0.037405
42.47 	0.039664 	4765 	0.039418
42.51 	0.037107 	4743 	0.036860
42.55 	0.039932 	4708 	0.039185
42.59 	0.036583 	4729 	0.036211
42.63 	0.035464 	4709 	0.035091
42.67 	0.039923 	4684 	0.039548
42.71 	0.038816 	4663 	0.038439
42.75 	0.039203 	4617 	0.038442
42.79 	0.038629 	4582 	0.038246
42.83 	0.039021 	4536 	0.038763
42.87 	0.040231 	4499 	0.039580
42.91 	0.039722 	4456 	0.039459
42.95 	0.038949 	4416 	0.038286
42.99 	0.034892 	4385 	0.034758
43.03 	0.037157 	4333 	0.036616
43.07 	0.037477 	4296 	0.037340
43.11 	0.039483 	4255 	0.038519
43.15 	0.039943 	4206 	0.039525
43.19 	0.043634 	4194 	0.043215
43.23 	0.042850 	4154 	0.042145
43.27 	0.035810 	4105 	0.035667
43.31 	0.040206 	4079 	0.040062
43.35 	0.039931 	4032 	0.039204
43.39 	0.035982 	4002 	0.035397
43.43 	0.035354 	3960 	0.034762
43.47 	0.034685 	3921 	0.034536
43.51 	0.036368 	3877 	0.035764
43.55 	0.036775 	2964 	0.036379
43.59 	0.034364 	1746 	0.034029
43.63 	0.051948 	1001 	0.050778
43.67 	0.047809 	502 	0.047809
43.71 	0.037657 	239 	0.037657
43.75 	0.000000 	16 	0.000000