File: Example_Data/25SC_s1_0031.002.dat
#F C:\frames\spec\25SC_s1_0031.002
#C title =s:31 frm:2 25SC_s1
#C wavelength =0.15406

#S 1  fr_average C:\frames\spec\25SC_s1_0031.002 C:\win32app\speccom\mask.axs chi 0 180 0 360 0.02
#C 2 theta =0.000000 to 180 deg
#C   q   =0.000000 to 81.568 nm^-1
#C  chi  =0.000000 to 360 deg
#C collumns:
#C  1 position (2theta or chi in degrees)
#C  2 average intensity (sum of all counts in the region divided with number of pixels)
#C  3 Number of pixels in region)
#C  4 error (sum of sqrt(intensity) for all pixels divided by number)
#N 4
#L TTh  Int  N_pix  Err
32.99 	0.098361 	61 	0.098361
33.03 	0.053918 	1391 	0.053918
33.07 	0.061951 	2050 	0.061094
33.11 	0.066305 	2579 	0.063315
33.15 	0.067022 	2999 	0.066632
33.19 	0.060443 	3342 	0.059742
33.23 	0.061311 	3523 	0.059815
33.27 	0.057300 	3630 	0.056816
33.31 	0.053005 	3660 	0.052205
33.35 	0.053600 	3694 	0.052808
33.39 	0.060606 	3729 	0.059664
33.43 	0.049189 	3761 	0.048410
33.47 	0.064771 	3798 	0.063383
33.51 	0.054260 	3815 	0.053338
33.55 	0.054124 	3843 	0.053210
33.59 	0.060309 	3880 	0.059379
33.63 	0.057923 	3919 	0.056105
33.67 	0.061457 	3954 	0.060420
33.71 	0.052830 	3975 	0.052388
33.75 	0.060265 	3999 	0.058800
33.79 	0.053205 	4041 	0.052480
33.83 	0.059259 	4050 	0.058825
33.87 	0.065191 	4111 	0.063743
33.91 	0.062666 	4149 	0.061254
33.95 	0.060990 	4181 	0.060290
33.99 	0.060238 	4200 	0.059262
34.03 	0.061734 	4244 	0.061320
34.07 	0.064199 	4268 	0.063512
34.11 	0.056020 	4302 	0.054386
34.15 	0.059801 	4331 	0.059125
34.19 	0.057084 	4362 	0.056010
34.23 	0.057819 	4393 	0.057019
34.27 	0.056536 	4422 	0.055189
34.31 	0.052041 	4458 	0.051100
34.35 	0.056869 	4484 	0.055824
34.39 	0.064194 	4502 	0.062762
34.43 	0.056400 	4539 	0.055626
34.47 	0.056402 	4592 	0.055509
34.51 	0.051238 	4606 	0.050729
34.55 	0.059660 	4643 	0.058650
34.59 	0.056898 	4675 	0.055896
34.63 	0.057113 	4710 	0.056242
34.67 	0.056528 	4741 	0.056034
34.71 	0.058540 	4766 	0.057188
34.75 	0.054493 	4808 	0.053883
34.79 	0.051202 	4824 	0.050595
34.83 	0.058001 	4862 	0.057278
34.87 	0.054232 	4868 	0.053630
34.91 	0.057763 	4882 	0.057283
34.95 	0.056237 	4890 	0.054920
34.99 	0.055340 	4897 	0.054622
35.03 	0.061501 	4943 	0.059842
35.07 	0.054251 	4940 	0.053540
35.11 	0.059430 	4947 	0.058483
35.15 	0.053879 	4937 	0.053009
35.19 	0.053622 	4942 	0.053503
35.23 	0.061072 	4945 	0.059967
35.27 	0.058003 	4948 	0.057293
35.31 	0.060207 	4933 	0.059257
35.35 	0.054229 	4942 	0.053399
35.39 	0.058645 	4945 	0.057697
35.43 	0.050882 	4933 	0.050407
35.47 	0.051511 	4931 	0.051154
35.51 	0.054811 	4926 	0.054217
35.55 	0.061072 	4945 	0.059769
35.59 	0.057230 	4945 	0.055926
35.63 	0.058062 	4943 	0.057232
35.67 	0.053015 	4942 	0.051948
35.71 	0.057322 	4937 	0.056492
35.75 	0.059217 	4931 	0.057910
35.79 	0.051500 	4932 	0.051144
35.83 	0.051961 	4946 	0.051251
35.87 	0.049970 	4923 	0.049236
35.91 	0.051553 	4927 	0.050720
35.95 	0.057555 	4917 	0.056960
35.99 	0.058311 	4939 	0.056869
36.03 	0.058264 	4943 	0.057790
36.07 	0.059729 	4939 	0.059017
36.11 	0.052749 	4929 	0.052036
36.15 	0.048188 	4939 	0.047713
36.19 	0.055466 	4940 	0.054754
36.23 	0.058156 	4935 	0.056969
36.27 	0.054619 	4925 	0.054262
36.31 	0.053571 	4928 	0.052739
36.35 	0.048489 	4929 	0.048132
36.39 	0.054460 	4921 	0.053627
36.43 	0.053774 	4928 	0.053061
36.47 	0.049433 	4936 	0.048721
36.51 	0.055139 	4933 	0.053813
36.55 	0.055409 	4927 	0.053982
36.59 	0.058311 	4939 	0.056869
36.63 	0.057595 	4931 	0.056882
36.67 	0.061055 	4930 	0.059985
36.71 	0.050803 	4921 	0.050088
36.75 	0.051780 	4944 	0.051306
36.79 	0.057509 	4921 	0.056080
36.83 	0.054527 	4915 	0.053573
36.87 	0.053803 	4944 	0.053092
36.91 	0.050597 	4941 	0.049748
36.95 	0.057369 	4933 	0.056419
36.99 	0.054103 	4935 	0.053510
37.03 	0.054224 	4924 	0.053510
37.07 	0.054306 	4935 	0.053000
37.11 	0.061601 	4935 	0.059702
37.15 	0.052353 	4909 	0.051637
37.19 	0.051371 	4925 	0.050895
37.23 	0.054087 	4918 	0.053134
37.27 	0.054352 	4894 	0.053634
37.31 	0.055522 	4935 	0.054572
37.35 	0.055691 	4938 	0.055097
37.39 	0.053742 	4931 	0.052791
37.43 	0.050487 	4932 	0.050012
37.47 	0.047271 	4929 	0.046796
37.51 	0.050679 	4933 	0.049967
37.55 	0.052535 	4930 	0.051704
37.59 	0.053917 	4915 	0.052963
37.63 	0.061395 	4919 	0.060442
37.67 	0.048532 	4904 	0.047457
37.71 	0.045040 	4929 	0.044683
37.75 	0.053036 	4940 	0.052444
37.79 	0.055172 	4930 	0.054222
37.83 	0.051829 	4920 	0.050996
37.87 	0.052237 	4939 	0.051150
37.91 	0.057809 	4930 	0.056502
37.95 	0.051616 	4921 	0.050782
37.99 	0.052728 	4912 	0.051655
38.03 	0.048482 	4909 	0.047269
38.07 	0.048075 	4909 	0.047598
38.11 	0.055319 	4935 	0.054607
38.15 	0.049004 	4918 	0.048527
38.19 	0.056998 	4930 	0.056285
38.23 	0.054678 	4938 	0.053729
38.27 	0.053955 	4930 	0.053242
38.31 	0.052365 	4927 	0.051889
38.35 	0.061080 	4928 	0.060010
38.39 	0.055408 	4909 	0.054692
38.43 	0.064483 	4916 	0.063292
38.47 	0.065009 	4907 	0.064770
38.51 	0.062247 	4932 	0.061059
38.55 	0.065640 	4936 	0.064691
38.59 	0.055849 	4924 	0.055611
38.63 	0.059504 	4924 	0.057700
38.67 	0.054892 	4937 	0.053824
38.71 	0.051787 	4924 	0.051311
38.75 	0.055815 	4927 	0.054626
38.79 	0.050669 	4934 	0.049600
38.83 	0.055499 	4919 	0.054665
38.87 	0.042150 	4911 	0.041912
38.91 	0.046706 	4903 	0.045631
38.95 	0.045954 	4918 	0.045120
38.99 	0.051853 	4937 	0.051023
39.03 	0.047629 	4934 	0.047510
39.07 	0.045898 	4924 	0.044569
39.11 	0.047049 	4931 	0.046099
39.15 	0.041913 	4915 	0.041436
39.19 	0.045353 	4917 	0.045115
39.23 	0.046701 	4925 	0.046582
39.27 	0.046640 	4910 	0.046043
39.31 	0.041564 	4884 	0.040965
39.35 	0.046201 	4935 	0.045726
39.39 	0.036721 	4929 	0.036721
39.43 	0.042976 	4933 	0.042620
39.47 	0.043266 	4923 	0.042433
39.51 	0.045695 	4924 	0.044743
39.55 	0.041878 	4919 	0.041283
39.59 	0.046621 	4912 	0.045905
39.63 	0.045104 	4922 	0.044271
39.67 	0.047222 	4913 	0.046387
39.71 	0.043922 	4895 	0.043324
39.75 	0.039164 	4928 	0.038451
39.79 	0.042022 	4926 	0.041784
39.83 	0.046210 	4934 	0.045141
39.87 	0.047513 	4925 	0.047037
39.91 	0.048761 	4922 	0.047908
39.95 	0.044151 	4915 	0.043555
39.99 	0.043593 	4932 	0.043118
40.03 	0.044440 	4928 	0.044083
40.07 	0.044891 	4923 	0.044296
40.11 	0.042107 	4916 	0.041015
40.15 	0.045390 	4913 	0.044794
40.19 	0.044837 	4929 	0.044599
40.23 	0.039132 	4932 	0.038776
40.27 	0.042536 	4937 	0.041824
40.31 	0.042721 	4939 	0.042128
40.35 	0.039439 	4919 	0.038843
40.39 	0.042385 	4931 	0.041910
40.43 	0.047745 	4922 	0.047150
40.47 	0.045954 	4918 	0.045596
40.51 	0.040634 	4922 	0.040039
40.55 	0.044825 	4908 	0.044347
40.59 	0.046790 	4937 	0.046177
40.63 	0.034888 	4930 	0.034176
40.67 	0.042579 	4932 	0.042223
40.71 	0.038727 	4932 	0.038252
40.75 	0.042791 	4931 	0.042434
40.79 	0.040617 	4924 	0.040023
40.83 	0.044846 	4928 	0.044608
40.87 	0.040584 	4928 	0.040228
40.91 	0.037579 	4923 	0.037341
40.95 	0.037452 	4913 	0.036498
40.99 	0.041430 	4924 	0.040716
41.03 	0.043833 	4905 	0.043355
41.07 	0.040365 	4930 	0.040246
41.11 	0.039108 	4935 	0.038634
41.15 	0.040882 	4941 	0.040290
41.19 	0.041785 	4930 	0.041429
41.23 	0.042114 	4939 	0.041877
41.27 	0.046035 	4931 	0.045184
41.31 	0.037300 	4933 	0.036825
41.35 	0.035034 	4938 	0.034441
41.39 	0.042773 	4933 	0.042417
41.43 	0.043417 	4929 	0.042941
41.47 	0.038774 	4926 	0.038536
41.51 	0.044332 	4940 	0.043621
41.55 	0.046606 	4935 	0.046012
41.59 	0.037705 	4933 	0.037468
41.63 	0.039287 	4938 	0.039050
41.67 	0.041903 	4940 	0.041666
41.71 	0.041751 	4934 	0.041039
41.75 	0.040982 	4929 	0.040150
41.79 	0.035599 	4944 	0.035125
41.83 	0.039773 	4928 	0.039535
41.87 	0.041337 	4935 	0.040981
41.91 	0.036872 	4936 	0.036516
41.95 	0.041979 	4931 	0.041504
41.99 	0.036493 	4905 	0.036374
42.03 	0.041101 	4939 	0.040746
42.07 	0.039093 	4937 	0.038974
42.11 	0.040243 	4945 	0.040006
42.15 	0.040300 	4938 	0.039944
42.19 	0.041769 	4908 	0.041530
42.23 	0.037817 	4892 	0.037338
42.27 	0.038982 	4874 	0.038381
42.31 	0.035427 	4855 	0.035186
42.35 	0.037619 	4838 	0.037236
42.39 	0.036844 	4804 	0.036458
42.43 	0.039232 	4792 	0.037990
42.47 	0.032109 	4765 	0.031863
42.51 	0.036475 	4743 	0.035857
42.55 	0.039720 	4708 	0.038849
42.59 	0.040601 	4729 	0.039733
42.63 	0.045657 	4709 	0.045035
42.67 	0.037575 	4684 	0.037325
42.71 	0.037101 	4663 	0.036849
42.75 	0.038553 	4617 	0.038046
42.79 	0.037320 	4582 	0.036809
42.83 	0.037257 	4536 	0.037257
42.87 	0.036675 	4499 	0.036545
42.91 	0.037253 	4456 	0.037253
42.95 	0.042572 	4416 	0.042307
42.99 	0.038769 	4385 	0.038368
43.03 	0.035772 	4333 	0.034961
43.07 	0.039106 	4296 	0.038288
43.11 	0.040188 	4255 	0.039362
43.15 	0.036377 	4206 	0.035820
43.19 	0.038627 	4194 	0.038208
43.23 	0.038758 	4154 	0.038194
43.27 	0.036784 	4105 	0.036214
43.31 	0.043638 	4079 	0.043064
43.35 	0.039683 	4032 	0.039392
43.39 	0.037481 	4002 	0.037042
43.43 	0.044192 	3960 	0.043132
43.47 	0.039276 	3921 	0.038678
43.51 	0.031210 	3877 	0.031059
43.55 	0.039136 	2964 	0.038543
43.59 	0.033792 	1746 	0.033792
43.63 	0.038961 	1001 	0.038961
43.67 	0.025896 	502 	0.025896
43.71 	0.041841 	239 	0.041841
43.75 	0.000000 	16 	0.000000