File: Example_Data/25SC_s1_0051.003.dat
#F C:\frames\spec\25SC_s1_0051.003
#C title =s:51 frm:3 25SC_s1
#C wavelength =0.15406

#S 1  fr_average C:\frames\spec\25SC_s1_0051.003 C:\win32app\speccom\mask.axs chi 0 180 0 360 0.02
#C 2 theta =0.000000 to 180 deg
#C   q   =0.000000 to 81.568 nm^-1
#C  chi  =0.000000 to 360 deg
#C collumns:
#C  1 position (2theta or chi in degrees)
#C  2 average intensity (sum of all counts in the region divided with number of pixels)
#C  3 Number of pixels in region)
#C  4 error (sum of sqrt(intensity) for all pixels divided by number)
#N 4
#L TTh  Int  N_pix  Err
32.99 	0.147541 	61 	0.128335
33.03 	0.064702 	1391 	0.063859
33.07 	0.056585 	2050 	0.055728
33.11 	0.059325 	2579 	0.057962
33.15 	0.055685 	2999 	0.054904
33.19 	0.056254 	3342 	0.055377
33.23 	0.058189 	3523 	0.057191
33.27 	0.054270 	3630 	0.053786
33.31 	0.052459 	3660 	0.051632
33.35 	0.058202 	3694 	0.056749
33.39 	0.062215 	3729 	0.061587
33.43 	0.056102 	3761 	0.055635
33.47 	0.050553 	3798 	0.049473
33.51 	0.054260 	3815 	0.053645
33.55 	0.055946 	3843 	0.055031
33.59 	0.053866 	3880 	0.053111
33.63 	0.058178 	3919 	0.057107
33.67 	0.061204 	3954 	0.059870
33.71 	0.051824 	3975 	0.050350
33.75 	0.052763 	3999 	0.051591
33.79 	0.056917 	4041 	0.055757
33.83 	0.057531 	4050 	0.056518
33.87 	0.054974 	4111 	0.053669
33.91 	0.057122 	4149 	0.056557
33.95 	0.050945 	4181 	0.050104
33.99 	0.060238 	4200 	0.059122
34.03 	0.052309 	4244 	0.050515
34.07 	0.058810 	4268 	0.057574
34.11 	0.050442 	4302 	0.049761
34.15 	0.057031 	4331 	0.056084
34.19 	0.063044 	4362 	0.062373
34.23 	0.054177 	4393 	0.053377
34.27 	0.050882 	4422 	0.050220
34.31 	0.052939 	4458 	0.051077
34.35 	0.054862 	4484 	0.053664
34.39 	0.060640 	4502 	0.059989
34.43 	0.051333 	4539 	0.050042
34.47 	0.052700 	4592 	0.051935
34.51 	0.054928 	4606 	0.054420
34.55 	0.057291 	4643 	0.055650
34.59 	0.051979 	4675 	0.051352
34.63 	0.056688 	4710 	0.055672
34.67 	0.064754 	4741 	0.063272
34.71 	0.060638 	4766 	0.059655
34.75 	0.057820 	4808 	0.057089
34.79 	0.052032 	4824 	0.051181
34.83 	0.055327 	4862 	0.054604
34.87 	0.052794 	4868 	0.051951
34.91 	0.055920 	4882 	0.055080
34.95 	0.055215 	4890 	0.054616
34.99 	0.061875 	4897 	0.061037
35.03 	0.061299 	4943 	0.060232
35.07 	0.047976 	4940 	0.047146
35.11 	0.062664 	4947 	0.060750
35.15 	0.058132 	4937 	0.057065
35.19 	0.054634 	4942 	0.053804
35.23 	0.055005 	4945 	0.053939
35.27 	0.057599 	4948 	0.057244
35.31 	0.053112 	4933 	0.052280
35.35 	0.054027 	4942 	0.052367
35.39 	0.051365 	4945 	0.050417
35.43 	0.053314 	4933 	0.052483
35.47 	0.055972 	4931 	0.055240
35.51 	0.055217 	4926 	0.054246
35.55 	0.053185 	4945 	0.052237
35.59 	0.054398 	4945 	0.053806
35.63 	0.050172 	4943 	0.048948
35.67 	0.058276 	4942 	0.057920
35.71 	0.057727 	4937 	0.056383
35.75 	0.052728 	4931 	0.051777
35.79 	0.052514 	4932 	0.051802
35.83 	0.053579 	4946 	0.052986
35.87 	0.050173 	4923 	0.049697
35.91 	0.054394 	4927 	0.053562
35.95 	0.053081 	4917 	0.052485
35.99 	0.053047 	4939 	0.052672
36.03 	0.049767 	4943 	0.049412
36.07 	0.049605 	4939 	0.049249
36.11 	0.053763 	4929 	0.052437
36.15 	0.061551 	4939 	0.060721
36.19 	0.051215 	4940 	0.050385
36.23 	0.052888 	4935 	0.052175
36.27 	0.056650 	4925 	0.055936
36.31 	0.059253 	4928 	0.058659
36.35 	0.051126 	4929 	0.050175
36.39 	0.048161 	4921 	0.047447
36.43 	0.056006 	4928 	0.054818
36.47 	0.045989 	4936 	0.045494
36.51 	0.048855 	4933 	0.048498
36.55 	0.049320 	4927 	0.048845
36.59 	0.051225 	4939 	0.050632
36.63 	0.049888 	4931 	0.049057
36.67 	0.054564 	4930 	0.053851
36.71 	0.045316 	4921 	0.045078
36.75 	0.057443 	4944 	0.056614
36.79 	0.050803 	4921 	0.050327
36.83 	0.049644 	4915 	0.049406
36.87 	0.054207 	4944 	0.053378
36.91 	0.048168 	4941 	0.047319
36.95 	0.046219 	4933 	0.045269
36.99 	0.050051 	4935 	0.048745
37.03 	0.052600 	4924 	0.050914
37.07 	0.053901 	4935 	0.053307
37.11 	0.055724 	4935 	0.054537
37.15 	0.048890 	4909 	0.048293
37.19 	0.049949 	4925 	0.049355
37.23 	0.053884 	4918 	0.053050
37.27 	0.052309 	4894 	0.051830
37.31 	0.052077 	4935 	0.051721
37.35 	0.047388 	4938 	0.047269
37.39 	0.048266 	4931 	0.047672
37.43 	0.053122 	4932 	0.052529
37.47 	0.051126 	4929 	0.050651
37.51 	0.048247 	4933 	0.047534
37.55 	0.048884 	4930 	0.048053
37.59 	0.049034 	4915 	0.048438
37.63 	0.052246 	4919 	0.051036
37.67 	0.051183 	4904 	0.050585
37.71 	0.050112 	4929 	0.049755
37.75 	0.051417 	4940 	0.050468
37.79 	0.051318 	4930 	0.050606
37.83 	0.052033 	4920 	0.051080
37.87 	0.053857 	4939 	0.053027
37.91 	0.050710 	4930 	0.049997
37.95 	0.051006 	4921 	0.050173
37.99 	0.049878 	4912 	0.049162
38.03 	0.052760 	4909 	0.051806
38.07 	0.051131 	4909 	0.050176
38.11 	0.045998 	4935 	0.045761
38.15 	0.051444 	4918 	0.049895
38.19 	0.051521 	4930 	0.050690
38.23 	0.051843 	4938 	0.051131
38.27 	0.051318 	4930 	0.050724
38.31 	0.047696 	4927 	0.046864
38.35 	0.052557 	4928 	0.052081
38.39 	0.060501 	4909 	0.059666
38.43 	0.058381 	4916 	0.056951
38.47 	0.057877 	4907 	0.057041
38.51 	0.056772 	4932 	0.055327
38.55 	0.058347 	4936 	0.057160
38.59 	0.051990 	4924 	0.050920
38.63 	0.057271 	4924 	0.056319
38.67 	0.052258 	4937 	0.051527
38.71 	0.054224 	4924 	0.053491
38.75 	0.056830 	4927 	0.055760
38.79 	0.045399 	4934 	0.044924
38.83 	0.055296 	4919 	0.054443
38.87 	0.047445 	4911 	0.046252
38.91 	0.047930 	4903 	0.046735
38.95 	0.043310 	4918 	0.042477
38.99 	0.044359 	4937 	0.043390
39.03 	0.042156 	4934 	0.041444
39.07 	0.059098 	4924 	0.057532
39.11 	0.045021 	4931 	0.044071
39.15 	0.043947 	4915 	0.043351
39.19 	0.041895 	4917 	0.041300
39.23 	0.042234 	4925 	0.041877
39.27 	0.050713 	4910 	0.049878
39.31 	0.042998 	4884 	0.042038
39.35 	0.042148 	4935 	0.041792
39.39 	0.041591 	4929 	0.041234
39.43 	0.051085 	4933 	0.049541
39.47 	0.043063 	4923 	0.042349
39.51 	0.046507 	4924 	0.045674
39.55 	0.046351 	4919 	0.045755
39.59 	0.046010 	4912 	0.045513
39.63 	0.046729 	4922 	0.045777
39.67 	0.054142 	4913 	0.053188
39.71 	0.046578 	4895 	0.046339
39.75 	0.043831 	4928 	0.043237
39.79 	0.045676 	4926 	0.044705
39.83 	0.044386 	4934 	0.044030
39.87 	0.046701 	4925 	0.046225
39.91 	0.047542 	4922 	0.046232
39.95 	0.042930 	4915 	0.042096
39.99 	0.040552 	4932 	0.039958
40.03 	0.045455 	4928 	0.045098
40.07 	0.045298 	4923 	0.044088
40.11 	0.042514 	4916 	0.041561
40.15 	0.045593 	4913 	0.045474
40.19 	0.045445 	4929 	0.044970
40.23 	0.039335 	4932 	0.038860
40.27 	0.042333 	4937 	0.042096
40.31 	0.044948 	4939 	0.044593
40.35 	0.044115 	4919 	0.043638
40.39 	0.044007 	4931 	0.042938
40.43 	0.043885 	4922 	0.042932
40.47 	0.040057 	4918 	0.039223
40.51 	0.040837 	4922 	0.040361
40.55 	0.044214 	4908 	0.043497
40.59 	0.039700 	4937 	0.039344
40.63 	0.044625 	4930 	0.044149
40.67 	0.044201 	4932 	0.043845
40.71 	0.045012 	4932 	0.044656
40.75 	0.040357 	4931 	0.039763
40.79 	0.046507 	4924 	0.045655
40.83 	0.045252 	4928 	0.044420
40.87 	0.045252 	4928 	0.044301
40.91 	0.041032 	4923 	0.040794
40.95 	0.037859 	4913 	0.037740
40.99 	0.040617 	4924 	0.040617
41.03 	0.043221 	4905 	0.042385
41.07 	0.039351 	4930 	0.038876
41.11 	0.037285 	4935 	0.036929
41.15 	0.042704 	4941 	0.041874
41.19 	0.041582 	4930 	0.041107
41.23 	0.040089 	4939 	0.039615
41.27 	0.044413 	4931 	0.043938
41.31 	0.042570 	4933 	0.041620
41.35 	0.045565 	4938 	0.044616
41.39 	0.044192 	4933 	0.043717
41.43 	0.040982 	4929 	0.040982
41.47 	0.044458 	4926 	0.043744
41.51 	0.038664 	4940 	0.038190
41.55 	0.044985 	4935 	0.044154
41.59 	0.045003 	4933 	0.044647
41.63 	0.042122 	4938 	0.042122
41.67 	0.039271 	4940 	0.038797
41.71 	0.040535 	4934 	0.040060
41.75 	0.040779 	4929 	0.040304
41.79 	0.041869 	4944 	0.041395
41.83 	0.039570 	4928 	0.039094
41.87 	0.040122 	4935 	0.039765
41.91 	0.044368 	4936 	0.043537
41.95 	0.045630 	4931 	0.045392
41.99 	0.037717 	4905 	0.037119
42.03 	0.036040 	4939 	0.035802
42.07 	0.040713 	4937 	0.040120
42.11 	0.041456 	4945 	0.040745
42.15 	0.040300 	4938 	0.039944
42.19 	0.038509 	4908 	0.038150
42.23 	0.037204 	4892 	0.036844
42.27 	0.044317 	4874 	0.044076
42.31 	0.039959 	4855 	0.039114
42.35 	0.032245 	4838 	0.032003
42.39 	0.038301 	4804 	0.038058
42.43 	0.036937 	4792 	0.036692
42.47 	0.035677 	4765 	0.035308
42.51 	0.037951 	4743 	0.037827
42.55 	0.039932 	4708 	0.039808
42.59 	0.039966 	4729 	0.039595
42.63 	0.039286 	4709 	0.038540
42.67 	0.035440 	4684 	0.035440
42.71 	0.038816 	4663 	0.038691
42.75 	0.038986 	4617 	0.038606
42.79 	0.035574 	4582 	0.035063
42.83 	0.035053 	4536 	0.034665
42.87 	0.044454 	4499 	0.044064
42.91 	0.043761 	4456 	0.043104
42.95 	0.038949 	4416 	0.038286
42.99 	0.040593 	4385 	0.040059
43.03 	0.037157 	4333 	0.036751
43.07 	0.038408 	4296 	0.038135
43.11 	0.042773 	4255 	0.042223
43.15 	0.037090 	4206 	0.036672
43.19 	0.044111 	4194 	0.043552
43.23 	0.038999 	4154 	0.038576
43.27 	0.037759 	4105 	0.037473
43.31 	0.041677 	4079 	0.041102
43.35 	0.042907 	4032 	0.042180
43.39 	0.046477 	4002 	0.045745
43.43 	0.041414 	3960 	0.040822
43.47 	0.040806 	3921 	0.040657
43.51 	0.035079 	3877 	0.034625
43.55 	0.034076 	2964 	0.033878
43.59 	0.032646 	1746 	0.032646
43.63 	0.034965 	1001 	0.034380
43.67 	0.059761 	502 	0.058594
43.71 	0.025105 	239 	0.025105
43.75 	0.125000 	16 	0.125000