File: Example_Data/25SC_s1_0027.003.dat
#F C:\frames\spec\25SC_s1_0027.003
#C title =s:27 frm:3 25SC_s1
#C wavelength =0.15406

#S 1  fr_average C:\frames\spec\25SC_s1_0027.003 C:\win32app\speccom\mask.axs chi 0 180 0 360 0.02
#C 2 theta =0.000000 to 180 deg
#C   q   =0.000000 to 81.568 nm^-1
#C  chi  =0.000000 to 360 deg
#C collumns:
#C  1 position (2theta or chi in degrees)
#C  2 average intensity (sum of all counts in the region divided with number of pixels)
#C  3 Number of pixels in region)
#C  4 error (sum of sqrt(intensity) for all pixels divided by number)
#N 4
#L TTh  Int  N_pix  Err
32.99 	0.081967 	61 	0.081967
33.03 	0.074047 	1391 	0.071521
33.07 	0.068293 	2050 	0.066864
33.11 	0.060876 	2579 	0.059513
33.15 	0.058353 	2999 	0.057181
33.19 	0.059844 	3342 	0.058968
33.23 	0.056770 	3523 	0.056604
33.27 	0.059504 	3630 	0.058697
33.31 	0.065574 	3660 	0.063493
33.35 	0.062534 	3694 	0.061424
33.39 	0.056315 	3729 	0.054876
33.43 	0.060622 	3761 	0.059999
33.47 	0.059242 	3798 	0.058008
33.51 	0.054784 	3815 	0.053709
33.55 	0.052043 	3843 	0.051738
33.59 	0.061082 	3880 	0.060177
33.63 	0.052820 	3919 	0.052521
33.67 	0.063480 	3954 	0.063036
33.71 	0.055094 	3975 	0.053915
33.75 	0.059515 	3999 	0.057904
33.79 	0.059639 	4041 	0.058769
33.83 	0.060988 	4050 	0.059807
33.87 	0.057893 	4111 	0.057015
33.91 	0.057604 	4149 	0.056475
33.95 	0.057881 	4181 	0.056900
33.99 	0.052143 	4200 	0.051027
34.03 	0.063148 	4244 	0.061906
34.07 	0.062559 	4268 	0.061186
34.11 	0.062994 	4302 	0.062585
34.15 	0.053798 	4331 	0.052581
34.19 	0.053187 	4362 	0.051978
34.23 	0.055998 	4393 	0.054931
34.27 	0.060832 	4422 	0.059640
34.31 	0.054284 	4458 	0.053627
34.35 	0.059768 	4484 	0.058984
34.39 	0.057086 	4502 	0.056305
34.43 	0.059484 	4539 	0.058065
34.47 	0.055314 	4592 	0.054038
34.51 	0.052540 	4606 	0.051777
34.55 	0.061598 	4643 	0.061093
34.59 	0.060749 	4675 	0.060623
34.63 	0.067516 	4710 	0.065899
34.67 	0.055684 	4741 	0.054449
34.71 	0.054763 	4766 	0.054025
34.75 	0.055324 	4808 	0.054837
34.79 	0.061774 	4824 	0.060317
34.83 	0.061086 	4862 	0.059520
34.87 	0.063887 	4868 	0.062563
34.91 	0.060631 	4882 	0.059791
34.95 	0.058691 	4890 	0.057853
34.99 	0.057995 	4897 	0.057397
35.03 	0.057657 	4943 	0.056946
35.07 	0.056478 	4940 	0.055529
35.11 	0.057409 	4947 	0.056224
35.15 	0.056512 	4937 	0.055681
35.19 	0.051396 	4942 	0.050804
35.23 	0.059656 	4945 	0.058590
35.27 	0.056589 	4948 	0.056115
35.31 	0.056761 	4933 	0.055811
35.35 	0.050384 	4942 	0.049555
35.39 	0.059252 	4945 	0.058541
35.43 	0.055950 	4933 	0.054643
35.47 	0.058812 	4931 	0.058079
35.51 	0.050345 	4926 	0.049156
35.55 	0.052578 	4945 	0.051986
35.59 	0.055410 	4945 	0.055291
35.63 	0.056039 	4943 	0.055209
35.67 	0.059692 	4942 	0.058507
35.71 	0.053069 	4937 	0.052238
35.75 	0.055364 	4931 	0.054651
35.79 	0.055758 	4932 	0.054808
35.83 	0.050344 	4946 	0.049633
35.87 	0.050579 	4923 	0.050222
35.91 	0.057236 	4927 	0.056641
35.95 	0.056742 	4917 	0.055293
35.99 	0.057906 	4939 	0.057076
36.03 	0.051183 	4943 	0.049880
36.07 	0.055882 	4939 	0.055407
36.11 	0.051329 	4929 	0.050002
36.15 	0.057502 	4939 	0.056553
36.19 	0.056275 	4940 	0.054971
36.23 	0.057143 	4935 	0.055956
36.27 	0.051980 	4925 	0.051623
36.31 	0.055601 	4928 	0.054769
36.35 	0.050923 	4929 	0.050329
36.39 	0.057305 	4921 	0.056829
36.43 	0.055398 	4928 	0.054566
36.47 	0.058549 	4936 	0.057837
36.51 	0.053720 	4933 	0.052532
36.55 	0.048711 	4927 	0.048117
36.59 	0.058514 	4939 	0.057684
36.63 	0.058000 	4931 	0.056456
36.67 	0.048073 	4930 	0.047835
36.71 	0.051209 	4921 	0.050733
36.75 	0.053196 	4944 	0.052722
36.79 	0.052428 	4921 	0.051595
36.83 	0.054323 	4915 	0.053489
36.87 	0.052589 	4944 	0.051641
36.91 	0.056466 	4941 	0.055636
36.95 	0.052098 	4933 	0.051386
36.99 	0.053495 	4935 	0.053139
37.03 	0.057067 	4924 	0.056711
37.07 	0.049848 	4935 	0.049492
37.11 	0.052077 	4935 	0.051602
37.15 	0.054186 	4909 	0.053232
37.19 	0.047107 	4925 	0.046155
37.23 	0.052257 	4918 	0.051304
37.27 	0.046588 	4894 	0.045989
37.31 	0.048632 	4935 	0.048157
37.35 	0.051033 	4938 	0.050440
37.39 	0.050497 	4931 	0.049665
37.43 	0.059408 	4932 	0.058577
37.47 	0.046257 	4929 	0.046019
37.51 	0.055139 	4933 	0.054308
37.55 	0.049087 	4930 	0.047879
37.59 	0.049644 	4915 	0.048929
37.63 	0.047571 	4919 	0.046618
37.67 	0.042618 	4904 	0.042140
37.71 	0.055995 	4929 	0.055520
37.75 	0.049595 	4940 	0.049121
37.79 	0.051927 	4930 	0.051076
37.83 	0.051829 	4920 	0.051472
37.87 	0.054060 	4939 	0.053348
37.91 	0.049290 	4930 	0.048577
37.95 	0.048364 	4921 	0.046936
37.99 	0.049878 	4912 	0.049043
38.03 	0.055205 	4909 	0.054369
38.07 	0.054186 	4909 	0.053351
38.11 	0.052685 	4935 	0.051973
38.15 	0.050224 	4918 	0.049370
38.19 	0.053550 	4930 	0.052124
38.23 	0.056096 	4938 	0.054771
38.27 	0.054361 	4930 	0.053054
38.31 	0.059062 	4927 	0.058111
38.35 	0.058442 	4928 	0.057372
38.39 	0.058464 	4909 	0.057390
38.43 	0.056957 	4916 	0.056004
38.47 	0.060933 	4907 	0.059978
38.51 	0.059205 	4932 	0.058849
38.55 	0.062601 	4936 	0.061177
38.59 	0.054630 	4924 	0.053679
38.63 	0.049756 	4924 	0.049043
38.67 	0.052866 	4937 	0.052372
38.71 	0.050975 	4924 	0.050737
38.75 	0.049320 	4927 	0.048488
38.79 	0.047223 	4934 	0.046155
38.83 	0.054279 	4919 	0.052969
38.87 	0.051313 	4911 	0.050717
38.91 	0.049358 	4903 	0.048521
38.95 	0.048394 	4918 	0.047898
38.99 	0.046992 	4937 	0.046636
39.03 	0.051885 	4934 	0.051054
39.07 	0.047522 	4924 	0.047046
39.11 	0.051714 	4931 	0.051357
39.15 	0.051475 	4915 	0.050760
39.19 	0.049827 	4917 	0.049351
39.23 	0.048528 	4925 	0.047914
39.27 	0.040326 	4910 	0.040087
39.31 	0.046888 	4884 	0.045928
39.35 	0.043364 	4935 	0.042889
39.39 	0.046054 	4929 	0.045103
39.43 	0.044800 	4933 	0.044088
39.47 	0.048751 	4923 	0.047660
39.51 	0.047522 	4924 	0.046690
39.55 	0.042082 	4919 	0.041367
39.59 	0.047638 	4912 	0.046923
39.63 	0.048354 	4922 	0.047502
39.67 	0.050071 	4913 	0.048879
39.71 	0.051481 	4895 	0.050883
39.75 	0.041396 	4928 	0.040921
39.79 	0.050751 	4926 	0.050157
39.83 	0.046413 	4934 	0.046056
39.87 	0.050761 	4925 	0.049810
39.91 	0.050386 	4922 	0.049434
39.95 	0.048627 	4915 	0.047912
39.99 	0.047648 	4932 	0.046698
40.03 	0.043019 	4928 	0.042663
40.07 	0.040626 	4923 	0.040269
40.11 	0.047803 	4916 	0.047088
40.15 	0.046204 	4913 	0.045707
40.19 	0.042808 	4929 	0.042332
40.23 	0.045215 	4932 	0.044859
40.27 	0.049828 	4937 	0.049472
40.31 	0.045151 	4939 	0.044914
40.35 	0.044521 	4919 	0.044283
40.39 	0.046035 	4931 	0.045323
40.43 	0.048964 	4922 	0.048488
40.47 	0.041887 	4918 	0.041291
40.51 	0.040837 	4922 	0.040361
40.55 	0.049918 	4908 	0.049083
40.59 	0.043751 	4937 	0.042921
40.63 	0.048073 	4930 	0.047241
40.67 	0.047242 	4932 	0.047005
40.71 	0.049067 	4932 	0.048592
40.75 	0.051916 	4931 	0.050966
40.79 	0.046913 	4924 	0.046675
40.83 	0.042208 	4928 	0.041495
40.87 	0.044034 	4928 	0.043559
40.91 	0.043266 	4923 	0.043028
40.95 	0.041522 	4913 	0.041522
40.99 	0.048335 	4924 	0.047978
41.03 	0.041998 	4905 	0.041162
41.07 	0.043205 	4930 	0.042354
41.11 	0.046403 	4935 	0.045928
41.15 	0.040478 	4941 	0.040003
41.19 	0.046856 	4930 	0.046024
41.23 	0.047580 	4939 	0.046987
41.27 	0.047455 	4931 	0.046980
41.31 	0.047030 	4933 	0.046555
41.35 	0.043337 	4938 	0.042863
41.39 	0.042976 	4933 	0.042382
41.43 	0.038953 	4929 	0.038597
41.47 	0.047300 	4926 	0.046230
41.51 	0.044332 	4940 	0.043976
41.55 	0.039919 	4935 	0.039682
41.59 	0.041962 	4933 	0.041725
41.63 	0.042527 	4938 	0.042409
41.67 	0.046559 	4940 	0.045966
41.71 	0.042562 	4934 	0.041849
41.75 	0.045242 	4929 	0.045124
41.79 	0.040453 	4944 	0.040216
41.83 	0.045455 	4928 	0.044741
41.87 	0.045390 	4935 	0.044559
41.91 	0.046596 	4936 	0.046240
41.95 	0.042993 	4931 	0.042399
41.99 	0.043833 	4905 	0.043236
42.03 	0.040494 	4939 	0.040257
42.07 	0.047397 	4937 	0.046409
42.11 	0.045096 	4945 	0.044978
42.15 	0.045565 	4938 	0.045090
42.19 	0.039324 	4908 	0.039085
42.23 	0.043949 	4892 	0.043710
42.27 	0.038572 	4874 	0.038332
42.31 	0.038929 	4855 	0.038688
42.35 	0.040306 	4838 	0.040064
42.39 	0.035803 	4804 	0.035316
42.43 	0.041110 	4792 	0.040254
42.47 	0.042183 	4765 	0.041814
42.51 	0.033945 	4743 	0.033574
42.55 	0.037171 	4708 	0.036798
42.59 	0.040389 	4729 	0.039502
42.63 	0.037588 	4709 	0.037214
42.67 	0.040564 	4684 	0.040564
42.71 	0.041819 	4663 	0.041316
42.75 	0.040502 	4617 	0.040122
42.79 	0.037320 	4582 	0.037064
42.83 	0.041667 	4536 	0.041408
42.87 	0.042454 	4499 	0.042193
42.91 	0.041966 	4456 	0.041440
42.95 	0.044611 	4416 	0.043947
42.99 	0.044014 	4385 	0.043212
43.03 	0.041311 	4333 	0.040207
43.07 	0.039804 	4296 	0.039532
43.11 	0.037603 	4255 	0.036914
43.15 	0.037565 	4206 	0.037426
43.19 	0.038150 	4194 	0.037731
43.23 	0.041887 	4154 	0.041041
43.27 	0.038002 	4105 	0.037860
43.31 	0.039225 	4079 	0.038938
43.35 	0.046875 	4032 	0.046439
43.39 	0.037731 	4002 	0.037585
43.43 	0.043687 	3960 	0.042947
43.47 	0.044376 	3921 	0.043306
43.51 	0.045138 	3877 	0.044231
43.55 	0.033401 	2964 	0.033203
43.59 	0.041237 	1746 	0.040566
43.63 	0.037962 	1001 	0.037962
43.67 	0.041833 	502 	0.041833
43.71 	0.041841 	239 	0.041841
43.75 	0.062500 	16 	0.062500