File: Example_Data/25SC_s1_0052.004.dat
#F C:\frames\spec\25SC_s1_0052.004
#C title =s:52 frm:4 25SC_s1
#C wavelength =0.15406

#S 1  fr_average C:\frames\spec\25SC_s1_0052.004 C:\win32app\speccom\mask.axs chi 0 180 0 360 0.02
#C 2 theta =0.000000 to 180 deg
#C   q   =0.000000 to 81.568 nm^-1
#C  chi  =0.000000 to 360 deg
#C collumns:
#C  1 position (2theta or chi in degrees)
#C  2 average intensity (sum of all counts in the region divided with number of pixels)
#C  3 Number of pixels in region)
#C  4 error (sum of sqrt(intensity) for all pixels divided by number)
#N 4
#L TTh  Int  N_pix  Err
32.99 	0.016393 	61 	0.016393
33.03 	0.081237 	1391 	0.078710
33.07 	0.069756 	2050 	0.068613
33.11 	0.070958 	2579 	0.069595
33.15 	0.075358 	2999 	0.073601
33.19 	0.073309 	3342 	0.072258
33.23 	0.068691 	3523 	0.066862
33.27 	0.065289 	3630 	0.063837
33.31 	0.071585 	3660 	0.069664
33.35 	0.069843 	3694 	0.067940
33.39 	0.066506 	3729 	0.065406
33.43 	0.071524 	3761 	0.069499
33.47 	0.070827 	3798 	0.069130
33.51 	0.070773 	3815 	0.069698
33.55 	0.069737 	3843 	0.069432
33.59 	0.068299 	3880 	0.066613
33.63 	0.072467 	3919 	0.071571
33.67 	0.066515 	3954 	0.064589
33.71 	0.070943 	3975 	0.069470
33.75 	0.067267 	3999 	0.066681
33.79 	0.065083 	4041 	0.063175
33.83 	0.065185 	4050 	0.062703
33.87 	0.070056 	4111 	0.069343
33.91 	0.068450 	4149 	0.067603
33.95 	0.071753 	4181 	0.070632
33.99 	0.073571 	4200 	0.071619
34.03 	0.071159 	4244 	0.069641
34.07 	0.062793 	4268 	0.061535
34.11 	0.056485 	4302 	0.055646
34.15 	0.067652 	4331 	0.066164
34.19 	0.070839 	4362 	0.068937
34.23 	0.072160 	4393 	0.070693
34.27 	0.063998 	4422 	0.062673
34.31 	0.064827 	4458 	0.063623
34.35 	0.072480 	4484 	0.070499
34.39 	0.067970 	4502 	0.066278
34.43 	0.068958 	4539 	0.067796
34.47 	0.065549 	4592 	0.064273
34.51 	0.069475 	4606 	0.067440
34.55 	0.066121 	4643 	0.065112
34.59 	0.067594 	4675 	0.066591
34.63 	0.063057 	4710 	0.061938
34.67 	0.069184 	4741 	0.067825
34.71 	0.063785 	4766 	0.062802
34.75 	0.061980 	4808 	0.061371
34.79 	0.069859 	4824 	0.068280
34.83 	0.061909 	4862 	0.060824
34.87 	0.065325 	4868 	0.063119
34.91 	0.070258 	4882 	0.069298
34.95 	0.070961 	4890 	0.069404
34.99 	0.068001 	4897 	0.066685
35.03 	0.065750 	4943 	0.064920
35.07 	0.067814 	4940 	0.066154
35.11 	0.062664 	4947 	0.061835
35.15 	0.066640 	4937 	0.065334
35.19 	0.063132 	4942 	0.061710
35.23 	0.063701 	4945 	0.062635
35.27 	0.065279 	4948 	0.064450
35.31 	0.062437 	4933 	0.061724
35.35 	0.071631 	4942 	0.070090
35.39 	0.073407 	4945 	0.070999
35.43 	0.065477 	4933 	0.064527
35.47 	0.063070 	4931 	0.061645
35.51 	0.068616 	4926 	0.067030
35.55 	0.065116 	4945 	0.063932
35.59 	0.071385 	4945 	0.069727
35.63 	0.063929 	4943 	0.062862
35.67 	0.065561 	4942 	0.063783
35.71 	0.069678 	4937 	0.068116
35.75 	0.063679 	4931 	0.062610
35.79 	0.061436 	4932 	0.060367
35.83 	0.070158 	4946 	0.067552
35.87 	0.059923 	4923 	0.059209
35.91 	0.064745 	4927 	0.063893
35.95 	0.065487 	4917 	0.064038
35.99 	0.064588 	4939 	0.063382
36.03 	0.068784 	4943 	0.068073
36.07 	0.069042 	4939 	0.067856
36.11 	0.069994 	4929 	0.068192
36.15 	0.065803 	4939 	0.064380
36.19 	0.071457 	4940 	0.070272
36.23 	0.067882 	4935 	0.065746
36.27 	0.064365 	4925 	0.063295
36.31 	0.071226 	4928 	0.069799
36.35 	0.066951 	4929 	0.065406
36.39 	0.075391 	4921 	0.074201
36.43 	0.073255 	4928 	0.071828
36.47 	0.066653 	4936 	0.065466
36.51 	0.071153 	4933 	0.069491
36.55 	0.063325 	4927 	0.062373
36.59 	0.062766 	4939 	0.061580
36.63 	0.064490 	4931 	0.063758
36.67 	0.067951 	4930 	0.066149
36.71 	0.064621 	4921 	0.063312
36.75 	0.069175 	4944 	0.067634
36.79 	0.068685 	4921 	0.067138
36.83 	0.065717 	4915 	0.063413
36.87 	0.068770 	4944 	0.067230
36.91 	0.067598 	4941 	0.066175
36.95 	0.067505 	4933 	0.066673
36.99 	0.069706 	4935 	0.068282
37.03 	0.067831 	4924 	0.066007
37.07 	0.060385 	4935 	0.059198
37.11 	0.070111 	4935 	0.069162
37.15 	0.058668 	4909 	0.058190
37.19 	0.069645 	4925 	0.068098
37.23 	0.056527 	4918 	0.055812
37.27 	0.061708 	4894 	0.060751
37.31 	0.063222 	4935 	0.062391
37.35 	0.065209 	4938 	0.062935
37.39 	0.062665 	4931 	0.061596
37.43 	0.061030 	4932 	0.059466
37.47 	0.062893 	4929 	0.061705
37.51 	0.066491 	4933 	0.065303
37.55 	0.062069 	4930 	0.060861
37.59 	0.068159 	4915 	0.066729
37.63 	0.061801 	4919 	0.061444
37.67 	0.066069 	4904 	0.064496
37.71 	0.061270 	4929 	0.060082
37.75 	0.063158 	4940 	0.061735
37.79 	0.064097 	4930 	0.063028
37.83 	0.061179 	4920 	0.060226
37.87 	0.059931 	4939 	0.059220
37.91 	0.058215 	4930 	0.057264
37.95 	0.054867 	4921 	0.054391
37.99 	0.062704 	4912 	0.061750
38.03 	0.059279 	4909 	0.057489
38.07 	0.059686 	4909 	0.058970
38.11 	0.059372 	4935 	0.057947
38.15 	0.068727 	4918 	0.067397
38.19 	0.067951 	4930 	0.066525
38.23 	0.075537 	4938 	0.073876
38.27 	0.069777 	4930 	0.068094
38.31 	0.065151 	4927 	0.064200
38.35 	0.077516 	4928 	0.074862
38.39 	0.074557 	4909 	0.073602
38.43 	0.079740 	4916 	0.077833
38.47 	0.074587 	4907 	0.072797
38.51 	0.075223 	4932 	0.073085
38.55 	0.074352 	4936 	0.072196
38.59 	0.073111 	4924 	0.071208
38.63 	0.071690 	4924 	0.070381
38.67 	0.078995 	4937 	0.076266
38.71 	0.069456 	4924 	0.068246
38.75 	0.063122 	4927 	0.061695
38.79 	0.058573 	4934 	0.057623
38.83 	0.056312 	4919 	0.055240
38.87 	0.059866 	4911 	0.059150
38.91 	0.057516 	4903 	0.056799
38.95 	0.054290 	4918 	0.053695
38.99 	0.056917 	4937 	0.055849
39.03 	0.052493 	4934 	0.051167
39.07 	0.056458 	4924 	0.055269
39.11 	0.062259 	4931 	0.060576
39.15 	0.059817 	4915 	0.058744
39.19 	0.059182 	4917 	0.058110
39.23 	0.052995 	4925 	0.051667
39.27 	0.058045 	4910 	0.056832
39.31 	0.056306 	4884 	0.055467
39.35 	0.056535 	4935 	0.055704
39.39 	0.051532 	4929 	0.051056
39.43 	0.054733 	4933 	0.053783
39.47 	0.052813 	4923 	0.052218
39.51 	0.049756 	4924 	0.048567
39.55 	0.050010 	4919 	0.049534
39.59 	0.050489 	4912 	0.049396
39.63 	0.051605 	4922 	0.051367
39.67 	0.054549 	4913 	0.053834
39.71 	0.052707 	4895 	0.051869
39.75 	0.054789 	4928 	0.053481
39.79 	0.053796 	4926 	0.052845
39.83 	0.054317 	4934 	0.053367
39.87 	0.056041 	4925 	0.055327
39.91 	0.050386 	4922 	0.049910
39.95 	0.048627 	4915 	0.048388
39.99 	0.053325 	4932 	0.052494
40.03 	0.051948 	4928 	0.051235
40.07 	0.052204 	4923 	0.050895
40.11 	0.045159 	4916 	0.044682
40.15 	0.047629 	4913 	0.047152
40.19 	0.051126 	4929 	0.050532
40.23 	0.052514 	4932 	0.051445
40.27 	0.045372 	4937 	0.045253
40.31 	0.047783 	4939 	0.047309
40.35 	0.053466 	4919 	0.052752
40.39 	0.046441 	4931 	0.045372
40.43 	0.053840 	4922 	0.052769
40.47 	0.048190 	4918 	0.047357
40.51 	0.044494 	4922 	0.043542
40.55 	0.054808 	4908 	0.053973
40.59 	0.056309 	4937 	0.055360
40.63 	0.052738 	4930 	0.051649
40.67 	0.055556 	4932 	0.054487
40.71 	0.051095 	4932 	0.050857
40.75 	0.054147 	4931 	0.052722
40.79 	0.053412 	4924 	0.052460
40.83 	0.051542 	4928 	0.050710
40.87 	0.047890 	4928 	0.047533
40.91 	0.047532 	4923 	0.047294
40.95 	0.048239 	4913 	0.047624
40.99 	0.044476 	4924 	0.044357
41.03 	0.049134 	4905 	0.048298
41.07 	0.053550 	4930 	0.052837
41.11 	0.053698 	4935 	0.053105
41.15 	0.046549 	4941 	0.045601
41.19 	0.046856 	4930 	0.046143
41.23 	0.041304 	4939 	0.040948
41.27 	0.047252 	4931 	0.047133
41.31 	0.048449 	4933 	0.047618
41.35 	0.048603 	4938 	0.047891
41.39 	0.044395 	4933 	0.043920
41.43 	0.047880 	4929 	0.047405
41.47 	0.043849 	4926 	0.043254
41.51 	0.050607 	4940 	0.049540
41.55 	0.050051 	4935 	0.049457
41.59 	0.046827 	4933 	0.046234
41.63 	0.045768 	4938 	0.045174
41.67 	0.045951 	4940 	0.045596
41.71 	0.050669 	4934 	0.049462
41.75 	0.054778 	4929 	0.054302
41.79 	0.050769 	4944 	0.049939
41.83 	0.050122 	4928 	0.049290
41.87 	0.047416 	4935 	0.047060
41.91 	0.044165 	4936 	0.043335
41.95 	0.049077 	4931 	0.048602
41.99 	0.043221 	4905 	0.042863
42.03 	0.044138 	4939 	0.043664
42.07 	0.048005 	4937 	0.047412
42.11 	0.052376 	4945 	0.051902
42.15 	0.047388 	4938 	0.046676
42.19 	0.046455 	4908 	0.045739
42.23 	0.044358 	4892 	0.043759
42.27 	0.045753 	4874 	0.045032
42.31 	0.045520 	4855 	0.044314
42.35 	0.041959 	4838 	0.041596
42.39 	0.050999 	4804 	0.050511
42.43 	0.042988 	4792 	0.041501
42.47 	0.048269 	4765 	0.048023
42.51 	0.044065 	4743 	0.043077
42.55 	0.042056 	4708 	0.041683
42.59 	0.043561 	4729 	0.042818
42.63 	0.042260 	4709 	0.042011
42.67 	0.044193 	4684 	0.043193
42.71 	0.047823 	4663 	0.046693
42.75 	0.049166 	4617 	0.048130
42.79 	0.041030 	4582 	0.040519
42.83 	0.043871 	4536 	0.043484
42.87 	0.049567 	4499 	0.048634
42.91 	0.051840 	4456 	0.051051
42.95 	0.040761 	4416 	0.039965
42.99 	0.048347 	4385 	0.047679
43.03 	0.045234 	4333 	0.044423
43.07 	0.046322 	4296 	0.045640
43.11 	0.049589 	4255 	0.049176
43.15 	0.045649 	4206 	0.045231
43.19 	0.049118 	4194 	0.048140
43.23 	0.046461 	4154 	0.046320
43.27 	0.043849 	4105 	0.043278
43.31 	0.041187 	4079 	0.040612
43.35 	0.041915 	4032 	0.040898
43.39 	0.044978 	4002 	0.043953
43.43 	0.043182 	3960 	0.042590
43.47 	0.044121 	3921 	0.043524
43.51 	0.044106 	3877 	0.043653
43.55 	0.048246 	2964 	0.047850
43.59 	0.041810 	1746 	0.041474
43.63 	0.048951 	1001 	0.048366
43.67 	0.043825 	502 	0.043825
43.71 	0.037657 	239 	0.035206
43.75 	0.062500 	16 	0.062500