File: Example_Data/25SC_s1_0021.000.dat
#F C:\frames\spec\25SC_s1_0021.000
#C title =s:21 frm:0 25SC_s1
#C wavelength =0.15406

#S 1  fr_average C:\frames\spec\25SC_s1_0021.000 C:\win32app\speccom\mask.axs chi 0 180 0 360 0.02
#C 2 theta =0.000000 to 180 deg
#C   q   =0.000000 to 81.568 nm^-1
#C  chi  =0.000000 to 360 deg
#C collumns:
#C  1 position (2theta or chi in degrees)
#C  2 average intensity (sum of all counts in the region divided with number of pixels)
#C  3 Number of pixels in region)
#C  4 error (sum of sqrt(intensity) for all pixels divided by number)
#N 4
#L TTh  Int  N_pix  Err
32.99 	0.098361 	61 	0.098361
33.03 	0.066139 	1391 	0.065718
33.07 	0.074634 	2050 	0.072348
33.11 	0.065142 	2579 	0.064233
33.15 	0.059687 	2999 	0.059687
33.19 	0.064333 	3342 	0.063281
33.23 	0.062731 	3523 	0.060375
33.27 	0.063636 	3630 	0.062480
33.31 	0.063934 	3660 	0.062974
33.35 	0.059827 	3694 	0.058875
33.39 	0.056315 	3729 	0.055373
33.43 	0.059293 	3761 	0.058202
33.47 	0.067930 	3798 	0.065746
33.51 	0.055046 	3815 	0.054739
33.55 	0.061931 	3843 	0.060254
33.59 	0.056959 	3880 	0.056204
33.63 	0.060985 	3919 	0.059789
33.67 	0.065503 	3954 	0.064022
33.71 	0.062138 	3975 	0.061254
33.75 	0.059015 	3999 	0.057550
33.79 	0.055927 	4041 	0.055347
33.83 	0.068889 	4050 	0.067587
33.87 	0.056434 	4111 	0.055128
33.91 	0.057122 	4149 	0.055828
33.95 	0.062186 	4181 	0.061626
33.99 	0.063333 	4200 	0.062218
34.03 	0.055844 	4244 	0.054717
34.07 	0.055061 	4268 	0.053688
34.11 	0.059275 	4302 	0.058049
34.15 	0.055414 	4331 	0.054468
34.19 	0.058001 	4362 	0.057061
34.23 	0.057136 	4393 	0.056603
34.27 	0.059249 	4422 	0.058433
34.31 	0.063033 	4458 	0.061850
34.35 	0.060660 	4484 	0.060007
34.39 	0.051755 	4502 	0.051364
34.43 	0.059705 	4539 	0.058543
34.47 	0.049216 	4592 	0.048451
34.51 	0.057317 	4606 	0.056426
34.55 	0.057506 	4643 	0.056749
34.59 	0.057754 	4675 	0.056877
34.63 	0.058599 	4710 	0.056982
34.67 	0.050622 	4741 	0.050128
34.71 	0.059589 	4766 	0.058728
34.75 	0.061980 	4808 	0.060600
34.79 	0.059080 	4824 	0.057380
34.83 	0.053476 	4862 	0.052151
34.87 	0.054026 	4868 	0.052943
34.91 	0.057968 	4882 	0.057008
34.95 	0.059714 	4890 	0.059115
34.99 	0.058199 	4897 	0.057003
35.03 	0.053207 	4943 	0.052258
35.07 	0.055668 	4940 	0.054818
35.11 	0.052961 	4947 	0.052014
35.15 	0.061373 	4937 	0.060899
35.19 	0.057669 	4942 	0.056464
35.23 	0.051972 	4945 	0.051142
35.27 	0.058812 	4948 	0.057983
35.31 	0.057977 	4933 	0.057383
35.35 	0.060097 	4942 	0.058280
35.39 	0.059050 	4945 	0.057628
35.43 	0.056355 	4933 	0.055643
35.47 	0.060028 	4931 	0.059078
35.51 	0.049939 	4926 	0.049087
35.55 	0.059252 	4945 	0.058166
35.59 	0.055005 	4945 	0.054156
35.63 	0.057657 	4943 	0.056117
35.67 	0.058478 	4942 	0.057767
35.71 	0.059753 	4937 	0.058566
35.75 	0.065707 	4931 	0.063925
35.79 	0.054947 	4932 	0.053878
35.83 	0.061868 	4946 	0.060664
35.87 	0.062767 	4923 	0.061815
35.91 	0.056424 	4927 	0.056067
35.95 	0.063250 	4917 	0.061801
35.99 	0.054262 	4939 	0.053550
36.03 	0.054825 	4943 	0.053758
36.07 	0.054667 	4939 	0.054074
36.11 	0.056604 	4929 	0.056128
36.15 	0.059931 	4939 	0.057994
36.19 	0.060931 	4940 	0.059390
36.23 	0.056332 	4935 	0.055858
36.27 	0.059898 	4925 	0.058709
36.31 	0.054992 	4928 	0.054160
36.35 	0.053966 	4929 	0.053134
36.39 	0.056086 	4921 	0.055253
36.43 	0.062500 	4928 	0.061074
36.47 	0.057131 	4936 	0.056182
36.51 	0.059801 	4933 	0.059208
36.55 	0.065354 	4927 	0.063809
36.59 	0.057097 	4939 	0.056504
36.63 	0.060231 	4931 	0.059281
36.67 	0.054970 	4930 	0.054494
36.71 	0.058728 	4921 	0.057776
36.75 	0.060477 	4944 	0.059411
36.79 	0.057915 	4921 	0.056844
36.83 	0.061648 	4915 	0.060575
36.87 	0.058657 	4944 	0.057946
36.91 	0.055859 	4941 	0.055029
36.95 	0.054531 	4933 	0.053462
36.99 	0.063425 	4935 	0.062455
37.03 	0.057677 	4924 	0.056606
37.07 	0.057751 	4935 	0.056564
37.11 	0.063425 	4935 	0.062594
37.15 	0.056427 	4909 	0.055353
37.19 	0.061320 	4925 	0.060706
37.23 	0.053070 	4918 	0.052237
37.27 	0.059256 	4894 	0.058140
37.31 	0.057345 	4935 	0.055565
37.35 	0.056703 	4938 	0.055873
37.39 	0.058000 	4931 	0.057406
37.43 	0.057380 	4932 	0.056787
37.47 	0.055995 	4929 	0.055401
37.51 	0.056355 	4933 	0.055761
37.55 	0.060852 	4930 	0.059664
37.59 	0.055341 	4915 	0.054030
37.63 	0.059362 	4919 	0.057794
37.67 	0.059135 	4904 	0.058180
37.71 	0.059647 	4929 	0.058459
37.75 	0.056478 	4940 	0.056122
37.79 	0.056592 	4930 	0.056117
37.83 	0.060976 	4920 	0.059785
37.87 	0.054262 	4939 	0.052720
37.91 	0.053753 	4930 	0.052802
37.95 	0.055070 	4921 	0.054237
37.99 	0.053746 	4912 	0.053269
38.03 	0.058871 	4909 	0.058394
38.07 	0.062742 	4909 	0.062145
38.11 	0.061803 	4935 	0.060854
38.15 	0.056730 	4918 	0.055658
38.19 	0.055375 	4930 	0.054306
38.23 	0.060956 	4938 	0.060106
38.27 	0.055375 	4930 	0.054544
38.31 	0.059062 	4927 	0.058349
38.35 	0.065747 	4928 	0.065152
38.39 	0.069464 	4909 	0.068032
38.43 	0.074451 	4916 	0.072902
38.47 	0.074995 	4907 	0.073543
38.51 	0.079278 	4932 	0.076784
38.55 	0.078606 	4936 	0.076945
38.59 	0.075751 	4924 	0.074681
38.63 	0.088546 	4924 	0.086266
38.67 	0.083046 	4937 	0.081247
38.71 	0.081235 	4924 	0.079054
38.75 	0.078141 	4927 	0.076833
38.79 	0.073976 	4934 	0.072433
38.83 	0.073592 	4919 	0.071310
38.87 	0.060273 	4911 	0.059080
38.91 	0.058944 	4903 	0.057371
38.95 	0.059984 	4918 	0.059269
38.99 	0.053271 	4937 	0.052559
39.03 	0.056546 	4934 	0.055597
39.07 	0.048741 	4924 	0.047908
39.11 	0.052728 	4931 	0.052252
39.15 	0.050051 	4915 	0.049217
39.19 	0.045963 	4917 	0.045248
39.23 	0.049949 	4925 	0.048879
39.27 	0.044399 	4910 	0.043922
39.31 	0.052621 	4884 	0.052141
39.35 	0.050051 	4935 	0.048982
39.39 	0.043011 	4929 	0.042773
39.43 	0.041151 	4933 	0.040676
39.47 	0.040016 	4923 	0.039659
39.51 	0.047929 	4924 	0.047572
39.55 	0.047164 	4919 	0.047045
39.59 	0.048860 	4912 	0.048144
39.63 	0.046729 	4922 	0.046253
39.67 	0.044779 	4913 	0.044183
39.71 	0.044535 	4895 	0.044057
39.75 	0.046875 	4928 	0.046518
39.79 	0.046285 	4926 	0.045690
39.83 	0.049047 	4934 	0.048098
39.87 	0.048934 	4925 	0.048815
39.91 	0.049370 	4922 	0.048894
39.95 	0.046185 	4915 	0.045589
39.99 	0.042782 	4932 	0.042188
40.03 	0.045455 	4928 	0.044385
40.07 	0.047532 	4923 	0.047056
40.11 	0.042921 	4916 	0.042683
40.15 	0.043151 	4913 	0.042793
40.19 	0.043214 	4929 	0.042976
40.23 	0.048054 	4932 	0.047460
40.27 	0.046182 	4937 	0.045707
40.31 	0.043126 	4939 	0.042652
40.35 	0.046554 	4919 	0.046197
40.39 	0.041371 	4931 	0.041133
40.43 	0.047135 	4922 	0.046659
40.47 	0.045140 	4918 	0.044307
40.51 	0.047338 	4922 	0.046981
40.55 	0.041361 	4908 	0.040764
40.59 	0.045979 	4937 	0.045604
40.63 	0.043813 	4930 	0.043219
40.67 	0.037307 	4932 	0.036951
40.71 	0.042985 	4932 	0.042747
40.75 	0.036909 	4931 	0.036553
40.79 	0.042648 	4924 	0.042053
40.83 	0.036729 	4928 	0.036353
40.87 	0.040787 	4928 	0.040074
40.91 	0.046313 	4923 	0.045837
40.95 	0.044779 	4913 	0.044183
40.99 	0.036962 	4924 	0.036605
41.03 	0.038124 	4905 	0.037886
41.07 	0.038945 	4930 	0.038589
41.11 	0.045187 	4935 	0.044594
41.15 	0.046752 	4941 	0.046040
41.19 	0.042799 	4930 	0.042086
41.23 	0.040696 	4939 	0.040222
41.27 	0.038329 	4931 	0.037379
41.31 	0.039732 	4933 	0.039257
41.35 	0.042325 	4938 	0.042088
41.39 	0.039935 	4933 	0.039460
41.43 	0.044431 	4929 	0.044193
41.47 	0.046082 	4926 	0.045606
41.51 	0.040891 	4940 	0.040179
41.55 	0.043566 	4935 	0.043092
41.59 	0.036286 	4933 	0.036167
41.63 	0.040097 	4938 	0.039860
41.67 	0.037045 	4940 	0.036689
41.71 	0.036482 	4934 	0.036244
41.75 	0.039765 	4929 	0.039170
41.79 	0.039644 	4944 	0.039170
41.83 	0.040381 	4928 	0.040263
41.87 	0.040527 	4935 	0.040289
41.91 	0.038290 	4936 	0.037815
41.95 	0.040965 	4931 	0.040114
41.99 	0.039144 	4905 	0.038666
42.03 	0.037457 	4939 	0.037220
42.07 	0.037270 	4937 	0.036795
42.11 	0.036603 	4945 	0.035892
42.15 	0.043742 	4938 	0.043387
42.19 	0.035249 	4908 	0.034532
42.23 	0.034137 	4892 	0.033778
42.27 	0.039188 	4874 	0.039067
42.31 	0.040577 	4855 	0.039973
42.35 	0.034932 	4838 	0.034326
42.39 	0.036012 	4804 	0.035646
42.43 	0.036519 	4792 	0.036030
42.47 	0.037566 	4765 	0.036582
42.51 	0.034788 	4743 	0.034418
42.55 	0.037171 	4708 	0.037046
42.59 	0.039755 	4729 	0.039383
42.63 	0.034402 	4709 	0.034278
42.67 	0.039069 	4684 	0.038569
42.71 	0.033026 	4663 	0.032523
42.75 	0.036387 	4617 	0.036134
42.79 	0.044740 	4582 	0.044357
42.83 	0.037257 	4536 	0.036870
42.87 	0.042676 	4499 	0.042286
42.91 	0.039722 	4456 	0.039722
42.95 	0.037364 	4416 	0.036834
42.99 	0.044242 	4385 	0.043440
43.03 	0.040849 	4333 	0.040444
43.07 	0.038641 	4296 	0.038368
43.11 	0.036663 	4255 	0.036525
43.15 	0.040656 	4206 	0.040099
43.19 	0.045303 	4194 	0.044604
43.23 	0.038036 	4154 	0.037613
43.27 	0.039220 	4105 	0.038935
43.31 	0.040941 	4079 	0.040223
43.35 	0.038442 	4032 	0.037861
43.39 	0.041479 	4002 	0.040894
43.43 	0.033838 	3960 	0.033395
43.47 	0.038766 	3921 	0.038616
43.51 	0.037142 	3877 	0.036538
43.55 	0.041498 	2964 	0.041300
43.59 	0.034364 	1746 	0.034364
43.63 	0.039960 	1001 	0.039375
43.67 	0.045817 	502 	0.044650
43.71 	0.041841 	239 	0.041841
43.75 	0.000000 	16 	0.000000