File: Example_Data/25SC_s1_0041.002.dat
#F C:\frames\spec\25SC_s1_0041.002
#C title =s:41 frm:2 25SC_s1
#C wavelength =0.15406

#S 1  fr_average C:\frames\spec\25SC_s1_0041.002 C:\win32app\speccom\mask.axs chi 0 180 0 360 0.02
#C 2 theta =0.000000 to 180 deg
#C   q   =0.000000 to 81.568 nm^-1
#C  chi  =0.000000 to 360 deg
#C collumns:
#C  1 position (2theta or chi in degrees)
#C  2 average intensity (sum of all counts in the region divided with number of pixels)
#C  3 Number of pixels in region)
#C  4 error (sum of sqrt(intensity) for all pixels divided by number)
#N 4
#L TTh  Int  N_pix  Err
32.99 	0.081967 	61 	0.081967
33.03 	0.069015 	1391 	0.068173
33.07 	0.063415 	2050 	0.061700
33.11 	0.060101 	2579 	0.059192
33.15 	0.068356 	2999 	0.066794
33.19 	0.060443 	3342 	0.059041
33.23 	0.058757 	3523 	0.057067
33.27 	0.057025 	3630 	0.055895
33.31 	0.058743 	3660 	0.057303
33.35 	0.058473 	3694 	0.057363
33.39 	0.066238 	3729 	0.065295
33.43 	0.055836 	3761 	0.055369
33.47 	0.059505 	3798 	0.058734
33.51 	0.056094 	3815 	0.055941
33.55 	0.058288 	3843 	0.057526
33.59 	0.051546 	3880 	0.050942
33.63 	0.059964 	3919 	0.059516
33.67 	0.058169 	3954 	0.056836
33.71 	0.057107 	3975 	0.056517
33.75 	0.059015 	3999 	0.056793
33.79 	0.056669 	4041 	0.055364
33.83 	0.060741 	4050 	0.059728
33.87 	0.060326 	4111 	0.059471
33.91 	0.060738 	4149 	0.059749
33.95 	0.058120 	4181 	0.057700
33.99 	0.057619 	4200 	0.056922
34.03 	0.059378 	4244 	0.058136
34.07 	0.059513 	4268 	0.058689
34.11 	0.057415 	4302 	0.056167
34.15 	0.053567 	4331 	0.052891
34.19 	0.058459 	4362 	0.057497
34.23 	0.059185 	4393 	0.057852
34.27 	0.058118 	4422 	0.056772
34.31 	0.056528 	4458 	0.055061
34.35 	0.057538 	4484 	0.056754
34.39 	0.056864 	4502 	0.056083
34.43 	0.053316 	4539 	0.052541
34.47 	0.057056 	4592 	0.055121
34.51 	0.061876 	4606 	0.060477
34.55 	0.055137 	4643 	0.054380
34.59 	0.052406 	4675 	0.051905
34.63 	0.054989 	4710 	0.053352
34.67 	0.063067 	4741 	0.062078
34.71 	0.060428 	4766 	0.059425
34.75 	0.054077 	4808 	0.053102
34.79 	0.056799 	4824 	0.056071
34.83 	0.052653 	4862 	0.051930
34.87 	0.057313 	4868 	0.056471
34.91 	0.059402 	4882 	0.057942
34.95 	0.059714 	4890 	0.058256
34.99 	0.059220 	4897 	0.058143
35.03 	0.059883 	4943 	0.059053
35.07 	0.057287 	4940 	0.055864
35.11 	0.054983 	4947 	0.054272
35.15 	0.055094 	4937 	0.054501
35.19 	0.061716 	4942 	0.060412
35.23 	0.059252 	4945 	0.057949
35.27 	0.059620 	4948 	0.058555
35.31 	0.055342 	4933 	0.054253
35.35 	0.055848 	4942 	0.055117
35.39 	0.055612 	4945 	0.054072
35.43 	0.051490 	4933 	0.051015
35.47 	0.054350 	4931 	0.053637
35.51 	0.052578 	4926 	0.051865
35.55 	0.058443 	4945 	0.057614
35.59 	0.058241 	4945 	0.057056
35.63 	0.055027 	4943 	0.054316
35.67 	0.057062 	4942 	0.056706
35.71 	0.059348 	4937 	0.058142
35.75 	0.056986 	4931 	0.055917
35.79 	0.054339 	4932 	0.053508
35.83 	0.052568 	4946 	0.051739
35.87 	0.058501 	4923 	0.057291
35.91 	0.056424 	4927 	0.055116
35.95 	0.059182 	4917 	0.058229
35.99 	0.052845 	4939 	0.051521
36.03 	0.057050 	4943 	0.055865
36.07 	0.054060 	4939 	0.053704
36.11 	0.055589 	4929 	0.055114
36.15 	0.058919 	4939 	0.058326
36.19 	0.061134 	4940 	0.060304
36.23 	0.062006 	4935 	0.060582
36.27 	0.050558 	4925 	0.049964
36.31 	0.049716 	4928 	0.049003
36.35 	0.052140 	4929 	0.051546
36.39 	0.054054 	4921 	0.052983
36.43 	0.053774 	4928 	0.052942
36.47 	0.052674 	4936 	0.052081
36.51 	0.055342 	4933 	0.054629
36.55 	0.056830 	4927 	0.055572
36.59 	0.055072 	4939 	0.053767
36.63 	0.060637 	4931 	0.059786
36.67 	0.056592 	4930 	0.055879
36.71 	0.058931 	4921 	0.057622
36.75 	0.050971 	4944 	0.050260
36.79 	0.051819 	4921 	0.051343
36.83 	0.058596 	4915 	0.057523
36.87 	0.057848 	4944 	0.057255
36.91 	0.051002 	4941 	0.050290
36.95 	0.055544 	4933 	0.054713
36.99 	0.051672 	4935 	0.050347
37.03 	0.052193 	4924 	0.050984
37.07 	0.054306 	4935 	0.053475
37.11 	0.053293 	4935 	0.052343
37.15 	0.054390 	4909 	0.053913
37.19 	0.054416 	4925 	0.053207
37.23 	0.055104 	4918 	0.053774
37.27 	0.055783 	4894 	0.054945
37.31 	0.054103 	4935 	0.053391
37.35 	0.054678 	4938 	0.054441
37.39 	0.049077 	4931 	0.047771
37.43 	0.055758 	4932 	0.055283
37.47 	0.051329 	4929 	0.050616
37.51 	0.051490 	4933 	0.050777
37.55 	0.049087 	4930 	0.048612
37.59 	0.050865 	4915 	0.050269
37.63 	0.053060 	4919 	0.052107
37.67 	0.051591 	4904 	0.050635
37.71 	0.052952 	4929 	0.052477
37.75 	0.052834 	4940 	0.051767
37.79 	0.056998 	4930 	0.055810
37.83 	0.051829 	4920 	0.050996
37.87 	0.057097 	4939 	0.056504
37.91 	0.051927 	4930 	0.051452
37.95 	0.052835 	4921 	0.051882
37.99 	0.052117 	4912 	0.051382
38.03 	0.050519 	4909 	0.049565
38.07 	0.055816 	4909 	0.054623
38.11 	0.052280 	4935 	0.052161
38.15 	0.057137 	4918 	0.056184
38.19 	0.050101 	4930 	0.049270
38.23 	0.057918 	4938 	0.057444
38.27 	0.062069 	4930 	0.060762
38.31 	0.061904 	4927 	0.060715
38.35 	0.063718 	4928 	0.062291
38.39 	0.066612 	4909 	0.065419
38.43 	0.060618 	4916 	0.059427
38.47 	0.059303 	4907 	0.058826
38.51 	0.071168 	4932 	0.070099
38.55 	0.066451 	4936 	0.064433
38.59 	0.060520 	4924 	0.059449
38.63 	0.053818 	4924 	0.053104
38.67 	0.061576 	4937 	0.060745
38.71 	0.056864 	4924 	0.055417
38.75 	0.054597 	4927 	0.053508
38.79 	0.052898 	4934 	0.052305
38.83 	0.049400 	4919 	0.048924
38.87 	0.044390 	4911 	0.044152
38.91 	0.046910 	4903 	0.046671
38.95 	0.045750 	4918 	0.045512
38.99 	0.046384 	4937 	0.045910
39.03 	0.043575 	4934 	0.042982
39.07 	0.046913 	4924 	0.046199
39.11 	0.047252 	4931 	0.046777
39.15 	0.045575 	4915 	0.044740
39.19 	0.045149 	4917 	0.044554
39.23 	0.044670 	4925 	0.044313
39.27 	0.046843 	4910 	0.045769
39.31 	0.046683 	4884 	0.045843
39.35 	0.040527 	4935 	0.040289
39.39 	0.043011 	4929 	0.042417
39.43 	0.041962 	4933 	0.041012
39.47 	0.040219 	4923 	0.039386
39.51 	0.044273 	4924 	0.043559
39.55 	0.044115 	4919 	0.043500
39.59 	0.048453 	4912 	0.048095
39.63 	0.044697 	4922 	0.044459
39.67 	0.042133 	4913 	0.041775
39.71 	0.042084 	4895 	0.041725
39.75 	0.042005 	4928 	0.041886
39.79 	0.047097 	4926 	0.045869
39.83 	0.039522 	4934 	0.038928
39.87 	0.043858 	4925 	0.043501
39.91 	0.039212 	4922 	0.038260
39.95 	0.046999 	4915 	0.046284
39.99 	0.048054 	4932 	0.047103
40.03 	0.039367 	4928 	0.038773
40.07 	0.042454 	4923 	0.041859
40.11 	0.045362 	4916 	0.044370
40.15 	0.042133 	4913 	0.042014
40.19 	0.049097 	4929 	0.048216
40.23 	0.037510 	4932 	0.036679
40.27 	0.041928 	4937 	0.041454
40.31 	0.036445 	4939 	0.035496
40.35 	0.041472 	4919 	0.040996
40.39 	0.039951 	4931 	0.039714
40.43 	0.042056 	4922 	0.041818
40.47 	0.039244 	4918 	0.038648
40.51 	0.047135 	4922 	0.046283
40.55 	0.038305 	4908 	0.037450
40.59 	0.043751 	4937 	0.043633
40.63 	0.039757 	4930 	0.039162
40.67 	0.042174 	4932 	0.041817
40.71 	0.039740 	4932 	0.039147
40.75 	0.044616 	4931 	0.043784
40.79 	0.041633 	4924 	0.040919
40.83 	0.045049 	4928 	0.043979
40.87 	0.043222 	4928 	0.042747
40.91 	0.038188 	4923 	0.037712
40.95 	0.044779 	4913 	0.044302
40.99 	0.042242 	4924 	0.041171
41.03 	0.043221 	4905 	0.042505
41.07 	0.043408 	4930 	0.043051
41.11 	0.043566 	4935 	0.042973
41.15 	0.045537 	4941 	0.044945
41.19 	0.045030 	4930 	0.044912
41.23 	0.042519 	4939 	0.042163
41.27 	0.044210 	4931 	0.043497
41.31 	0.042165 	4933 	0.041928
41.35 	0.035237 	4938 	0.035000
41.39 	0.043584 	4933 	0.042872
41.43 	0.043214 	4929 	0.042619
41.47 	0.040601 	4926 	0.039154
41.51 	0.045951 	4940 	0.045596
41.55 	0.039716 	4935 	0.039004
41.59 	0.036286 	4933 	0.035692
41.63 	0.042122 	4938 	0.041529
41.67 	0.044534 	4940 	0.044179
41.71 	0.041548 	4934 	0.041192
41.75 	0.040576 	4929 	0.039844
41.79 	0.038228 	4944 	0.037991
41.83 	0.042411 	4928 	0.042054
41.87 	0.039108 	4935 	0.038752
41.91 	0.040721 	4936 	0.039890
41.95 	0.040965 	4931 	0.040134
41.99 	0.042610 	4905 	0.042251
42.03 	0.036040 	4939 	0.035921
42.07 	0.035447 	4937 	0.034853
42.11 	0.035592 	4945 	0.035355
42.15 	0.039085 	4938 	0.038729
42.19 	0.035249 	4908 	0.034652
42.23 	0.040474 	4892 	0.039636
42.27 	0.034469 	4874 	0.034108
42.31 	0.046344 	4855 	0.045982
42.35 	0.046300 	4838 	0.046058
42.39 	0.043297 	4804 	0.042322
42.43 	0.038397 	4792 	0.037664
42.47 	0.035677 	4765 	0.035308
42.51 	0.039005 	4743 	0.038881
42.55 	0.040357 	4708 	0.040108
42.59 	0.042292 	4729 	0.042044
42.63 	0.042684 	4709 	0.042187
42.67 	0.036294 	4684 	0.035794
42.71 	0.035170 	4663 	0.035045
42.75 	0.037254 	4617 	0.037000
42.79 	0.036883 	4582 	0.036500
42.83 	0.032187 	4536 	0.031800
42.87 	0.040676 	4499 	0.040415
42.91 	0.039048 	4456 	0.038917
42.95 	0.041214 	4416 	0.040948
42.99 	0.037400 	4385 	0.037133
43.03 	0.031849 	4333 	0.031713
43.07 	0.033985 	4296 	0.033712
43.11 	0.040658 	4255 	0.040107
43.15 	0.038992 	4206 	0.038435
43.19 	0.043395 	4194 	0.042837
43.23 	0.038517 	4154 	0.037671
43.27 	0.037272 	4105 	0.036986
43.31 	0.034812 	4079 	0.034382
43.35 	0.041915 	4032 	0.041479
43.39 	0.035982 	4002 	0.035836
43.43 	0.043687 	3960 	0.043243
43.47 	0.039021 	3921 	0.039021
43.51 	0.036626 	3877 	0.036626
43.55 	0.040148 	2964 	0.039951
43.59 	0.032073 	1746 	0.031738
43.63 	0.042957 	1001 	0.042957
43.67 	0.031873 	502 	0.031873
43.71 	0.020921 	239 	0.020921
43.75 	0.000000 	16 	0.000000