File: Example_Data/25SC_s1_0008.002.dat
#F C:\frames\spec\25SC_s1_0008.002
#C title =s:8 frm:2 25SC_s1
#C wavelength =0.15406

#S 1  fr_average C:\frames\spec\25SC_s1_0008.002 C:\win32app\speccom\mask.axs chi 0 180 0 360 0.02
#C 2 theta =0.000000 to 180 deg
#C   q   =0.000000 to 81.568 nm^-1
#C  chi  =0.000000 to 360 deg
#C collumns:
#C  1 position (2theta or chi in degrees)
#C  2 average intensity (sum of all counts in the region divided with number of pixels)
#C  3 Number of pixels in region)
#C  4 error (sum of sqrt(intensity) for all pixels divided by number)
#N 4
#L TTh  Int  N_pix  Err
32.99 	0.081967 	61 	0.081967
33.03 	0.059669 	1391 	0.059248
33.07 	0.066829 	2050 	0.066544
33.11 	0.062815 	2579 	0.061906
33.15 	0.060353 	2999 	0.059767
33.19 	0.057451 	3342 	0.056224
33.23 	0.061028 	3523 	0.060362
33.27 	0.054545 	3630 	0.053739
33.31 	0.059836 	3660 	0.059356
33.35 	0.057661 	3694 	0.056868
33.39 	0.058193 	3729 	0.057250
33.43 	0.063281 	3761 	0.062035
33.47 	0.056345 	3798 	0.055112
33.51 	0.059764 	3815 	0.058689
33.55 	0.057767 	3843 	0.056218
33.59 	0.062113 	3880 	0.060302
33.63 	0.057668 	3919 	0.056621
33.67 	0.056904 	3954 	0.055719
33.71 	0.058113 	3975 	0.056787
33.75 	0.065516 	3999 	0.064784
33.79 	0.062361 	4041 	0.061201
33.83 	0.053827 	4050 	0.052959
33.87 	0.053272 	4111 	0.052702
33.91 	0.059050 	4149 	0.057780
33.95 	0.055489 	4181 	0.053505
33.99 	0.056667 	4200 	0.055690
34.03 	0.061970 	4244 	0.061142
34.07 	0.057170 	4268 	0.056598
34.11 	0.064854 	4302 	0.063900
34.15 	0.064188 	4331 	0.063106
34.19 	0.059376 	4362 	0.058280
34.23 	0.055543 	4393 	0.054876
34.27 	0.049977 	4422 	0.049580
34.31 	0.052041 	4458 	0.051384
34.35 	0.057538 	4484 	0.055970
34.39 	0.051533 	4502 	0.050882
34.43 	0.057502 	4539 	0.056469
34.47 	0.060322 	4592 	0.059557
34.51 	0.062310 	4606 	0.060911
34.55 	0.052121 	4643 	0.050860
34.59 	0.058824 	4675 	0.057946
34.63 	0.057962 	4710 	0.056221
34.67 	0.059270 	4741 	0.058529
34.71 	0.065464 	4766 	0.063866
34.75 	0.054700 	4808 	0.053482
34.79 	0.059494 	4824 	0.058644
34.83 	0.062731 	4862 	0.061868
34.87 	0.055670 	4868 	0.054206
34.91 	0.063703 	4882 	0.062863
34.95 	0.057055 	4890 	0.056696
34.99 	0.057382 	4897 	0.056425
35.03 	0.055027 	4943 	0.054435
35.07 	0.058300 	4940 	0.057470
35.11 	0.059228 	4947 	0.058281
35.15 	0.065424 	4937 	0.064356
35.19 	0.062323 	4942 	0.061256
35.23 	0.063094 	4945 	0.061436
35.27 	0.054568 	4948 	0.053502
35.31 	0.058180 	4933 	0.057448
35.35 	0.054836 	4942 	0.054362
35.39 	0.056421 	4945 	0.055591
35.43 	0.062031 	4933 	0.060606
35.47 	0.056784 	4931 	0.056308
35.51 	0.057856 	4926 	0.056429
35.55 	0.057027 	4945 	0.056198
35.59 	0.061274 	4945 	0.060089
35.63 	0.053207 	4943 	0.052733
35.67 	0.056657 	4942 	0.055472
35.71 	0.056917 	4937 	0.056324
35.75 	0.057595 	4931 	0.056526
35.79 	0.061030 	4932 	0.059842
35.83 	0.054590 	4946 	0.053879
35.87 	0.055657 	4923 	0.055062
35.91 	0.061701 	4927 	0.060512
35.95 	0.058776 	4917 	0.058061
35.99 	0.060336 	4939 	0.059031
36.03 	0.064536 	4943 	0.063351
36.07 	0.054464 	4939 	0.053397
36.11 	0.060256 	4929 	0.059067
36.15 	0.061146 	4939 	0.059723
36.19 	0.058502 	4940 	0.057672
36.23 	0.058764 	4935 	0.058052
36.27 	0.059492 	4925 	0.058541
36.31 	0.061080 	4928 	0.060366
36.35 	0.057618 	4929 	0.056905
36.39 	0.055680 	4921 	0.054846
36.43 	0.059862 	4928 	0.058792
36.47 	0.056118 	4936 	0.055644
36.51 	0.059396 	4933 	0.057813
36.55 	0.063730 	4927 	0.062660
36.59 	0.060336 	4939 	0.059506
36.63 	0.050497 	4931 	0.049408
36.67 	0.062677 	4930 	0.061370
36.71 	0.054460 	4921 	0.053508
36.75 	0.052791 	4944 	0.051488
36.79 	0.052022 	4921 	0.051308
36.83 	0.063479 	4915 	0.062268
36.87 	0.059466 	4944 	0.058755
36.91 	0.055454 	4941 	0.054457
36.95 	0.058180 	4933 	0.056498
36.99 	0.061398 	4935 	0.060686
37.03 	0.054833 	4924 	0.054715
37.07 	0.058764 	4935 	0.058170
37.11 	0.053090 	4935 	0.052853
37.15 	0.063353 	4909 	0.061663
37.19 	0.065381 	4925 	0.063953
37.23 	0.055714 	4918 	0.055118
37.27 	0.060074 	4894 	0.058398
37.31 	0.050659 	4935 	0.050184
37.35 	0.057108 	4938 	0.056040
37.39 	0.055364 	4931 	0.054176
37.43 	0.053731 	4932 	0.052761
37.47 	0.057212 	4929 	0.055905
37.51 	0.052504 	4933 	0.051910
37.55 	0.056389 	4930 	0.055677
37.59 	0.052289 	4915 	0.051574
37.63 	0.055499 	4919 	0.054665
37.67 	0.045677 	4904 	0.045438
37.71 	0.049909 	4929 	0.049314
37.75 	0.054656 	4940 	0.054063
37.79 	0.054361 	4930 	0.053648
37.83 	0.056301 	4920 	0.055210
37.87 	0.055072 	4939 	0.053985
37.91 	0.053347 	4930 	0.052753
37.95 	0.048771 	4921 	0.047818
37.99 	0.047231 	4912 	0.046993
38.03 	0.053779 	4909 	0.052943
38.07 	0.056631 	4909 	0.055915
38.11 	0.054103 	4935 	0.053391
38.15 	0.056120 	4918 	0.055882
38.19 	0.055984 	4930 	0.055271
38.23 	0.055893 	4938 	0.054588
38.27 	0.059026 	4930 	0.057838
38.31 	0.058250 	4927 	0.057062
38.35 	0.059456 	4928 	0.057891
38.39 	0.056631 	4909 	0.055795
38.43 	0.056550 	4916 	0.055835
38.47 	0.052170 	4907 	0.051693
38.51 	0.064882 	4932 	0.063576
38.55 	0.068071 	4936 	0.066647
38.59 	0.059911 	4924 	0.059078
38.63 	0.064379 	4924 	0.063407
38.67 	0.065424 	4937 	0.064119
38.71 	0.068643 	4924 	0.067811
38.75 	0.058047 	4927 	0.057096
38.79 	0.060600 	4934 	0.059650
38.83 	0.050823 	4919 	0.050109
38.87 	0.055386 	4911 	0.054551
38.91 	0.060779 	4903 	0.059345
38.95 	0.051240 	4918 	0.049454
38.99 	0.050030 	4937 	0.049062
39.03 	0.050263 	4934 	0.049551
39.07 	0.048944 	4924 	0.048111
39.11 	0.046441 	4931 	0.046203
39.15 	0.048627 	4915 	0.047892
39.19 	0.048403 	4917 	0.047808
39.23 	0.048122 	4925 	0.046813
39.27 	0.047658 	4910 	0.046703
39.31 	0.040745 	4884 	0.040625
39.35 	0.044782 	4935 	0.044189
39.39 	0.046257 	4929 	0.045425
39.43 	0.043989 	4933 	0.043514
39.47 	0.045094 	4923 	0.044381
39.51 	0.044273 	4924 	0.043559
39.55 	0.047774 	4919 	0.047059
39.59 	0.048860 	4912 	0.047906
39.63 	0.048557 	4922 	0.047724
39.67 	0.042744 	4913 	0.042505
39.71 	0.043514 	4895 	0.043274
39.75 	0.039164 	4928 	0.038807
39.79 	0.048721 	4926 	0.047770
39.83 	0.049250 	4934 	0.048300
39.87 	0.045076 	4925 	0.044006
39.91 	0.047948 	4922 	0.047472
39.95 	0.043337 	4915 	0.042741
39.99 	0.040146 	4932 	0.039552
40.03 	0.042614 	4928 	0.041782
40.07 	0.045907 	4923 	0.045788
40.11 	0.045769 	4916 	0.045173
40.15 	0.045593 	4913 	0.044997
40.19 	0.047677 	4929 	0.047320
40.23 	0.043390 	4932 	0.043034
40.27 	0.048613 	4937 	0.048138
40.31 	0.041506 	4939 	0.041032
40.35 	0.040862 	4919 	0.040386
40.39 	0.040154 	4931 	0.039323
40.43 	0.040228 	4922 	0.039751
40.47 	0.044937 	4918 	0.044322
40.51 	0.044697 	4922 	0.044340
40.55 	0.042584 	4908 	0.041509
40.59 	0.045169 	4937 	0.044695
40.63 	0.042191 	4930 	0.041339
40.67 	0.046634 	4932 	0.045803
40.71 	0.047040 	4932 	0.046683
40.75 	0.046846 	4931 	0.046352
40.79 	0.042039 	4924 	0.041801
40.83 	0.049310 	4928 	0.048597
40.87 	0.043628 	4928 	0.043272
40.91 	0.042251 	4923 	0.041894
40.95 	0.042133 	4913 	0.041418
40.99 	0.045695 	4924 	0.045100
41.03 	0.036493 	4905 	0.035896
41.07 	0.043205 	4930 	0.043086
41.11 	0.033840 	4935 	0.033484
41.15 	0.042097 	4941 	0.041504
41.19 	0.049696 	4930 	0.049339
41.23 	0.041911 	4939 	0.041318
41.27 	0.041371 	4931 	0.040777
41.31 	0.039732 	4933 	0.039495
41.35 	0.043540 	4938 	0.042947
41.39 	0.049666 	4933 	0.048953
41.43 	0.043417 	4929 	0.042822
41.47 	0.045879 	4926 	0.045166
41.51 	0.045142 	4940 	0.044905
41.55 	0.036879 	4935 	0.036642
41.59 	0.039530 	4933 	0.039055
41.63 	0.045362 	4938 	0.044651
41.67 	0.040891 	4940 	0.040772
41.71 	0.038306 	4934 	0.037831
41.75 	0.043011 	4929 	0.042773
41.79 	0.041464 	4944 	0.040753
41.83 	0.043222 	4928 	0.042490
41.87 	0.039311 	4935 	0.038836
41.91 	0.043558 	4936 	0.042964
41.95 	0.043602 	4931 	0.042889
41.99 	0.042813 	4905 	0.041858
42.03 	0.042114 	4939 	0.041758
42.07 	0.041928 	4937 	0.041572
42.11 	0.039434 	4945 	0.038841
42.15 	0.036249 	4938 	0.035894
42.19 	0.043806 	4908 	0.043209
42.23 	0.042723 	4892 	0.042364
42.27 	0.035700 	4874 	0.035339
42.31 	0.041401 	4855 	0.040677
42.35 	0.042993 	4838 	0.042751
42.39 	0.038510 	4804 	0.037900
42.43 	0.040484 	4792 	0.040117
42.47 	0.036306 	4765 	0.035938
42.51 	0.041113 	4743 	0.040496
42.55 	0.041631 	4708 	0.041258
42.59 	0.040178 	4729 	0.039434
42.63 	0.039074 	4709 	0.038328
42.67 	0.041418 	4684 	0.040792
42.71 	0.039460 	4663 	0.039208
42.75 	0.036820 	4617 	0.036440
42.79 	0.035137 	4582 	0.034882
42.83 	0.036596 	4536 	0.036209
42.87 	0.040231 	4499 	0.039580
42.91 	0.038824 	4456 	0.038298
42.95 	0.037817 	4416 	0.037132
42.99 	0.037172 	4385 	0.036638
43.03 	0.037157 	4333 	0.037022
43.07 	0.040037 	4296 	0.039628
43.11 	0.037838 	4255 	0.037012
43.15 	0.039467 	4206 	0.039050
43.19 	0.038865 	4194 	0.038027
43.23 	0.039721 	4154 	0.038851
43.27 	0.038002 	4105 	0.037432
43.31 	0.042412 	4079 	0.041838
43.35 	0.039435 	4032 	0.038563
43.39 	0.035482 	4002 	0.034750
43.43 	0.038131 	3960 	0.037835
43.47 	0.038766 	3921 	0.038019
43.51 	0.037658 	3877 	0.037356
43.55 	0.034076 	2964 	0.033878
43.59 	0.041810 	1746 	0.041474
43.63 	0.046953 	1001 	0.046953
43.67 	0.029880 	502 	0.029880
43.71 	0.033473 	239 	0.033473
43.75 	0.125000 	16 	0.125000