File: Example_Data/25SC_s1_0023.000.dat
#F C:\frames\spec\25SC_s1_0023.000
#C title =s:23 frm:0 25SC_s1
#C wavelength =0.15406

#S 1  fr_average C:\frames\spec\25SC_s1_0023.000 C:\win32app\speccom\mask.axs chi 0 180 0 360 0.02
#C 2 theta =0.000000 to 180 deg
#C   q   =0.000000 to 81.568 nm^-1
#C  chi  =0.000000 to 360 deg
#C collumns:
#C  1 position (2theta or chi in degrees)
#C  2 average intensity (sum of all counts in the region divided with number of pixels)
#C  3 Number of pixels in region)
#C  4 error (sum of sqrt(intensity) for all pixels divided by number)
#N 4
#L TTh  Int  N_pix  Err
32.99 	0.016393 	61 	0.016393
33.03 	0.061826 	1391 	0.060984
33.07 	0.063902 	2050 	0.061902
33.11 	0.062815 	2579 	0.061225
33.15 	0.065022 	2999 	0.063850
33.19 	0.066727 	3342 	0.065149
33.23 	0.057054 	3523 	0.056222
33.27 	0.064187 	3630 	0.062896
33.31 	0.061202 	3660 	0.060562
33.35 	0.057390 	3694 	0.056597
33.39 	0.059265 	3729 	0.058323
33.43 	0.057166 	3761 	0.056075
33.47 	0.058189 	3798 	0.057726
33.51 	0.066055 	3815 	0.064187
33.55 	0.054905 	3843 	0.054600
33.59 	0.062113 	3880 	0.061007
33.63 	0.066854 	3919 	0.066106
33.67 	0.056146 	3954 	0.055109
33.71 	0.058113 	3975 	0.056934
33.75 	0.055264 	3999 	0.054214
33.79 	0.060134 	4041 	0.058829
33.83 	0.060000 	4050 	0.058988
33.87 	0.062029 	4111 	0.061459
33.91 	0.057845 	4149 	0.057281
33.95 	0.056924 	4181 	0.055943
33.99 	0.065000 	4200 	0.063884
34.03 	0.053723 	4244 	0.053033
34.07 	0.053421 	4268 	0.052597
34.11 	0.056020 	4302 	0.055203
34.15 	0.057723 	4331 	0.057453
34.19 	0.060752 	4362 	0.059678
34.23 	0.063055 	4393 	0.061988
34.27 	0.054726 	4422 	0.053667
34.31 	0.058322 	4458 	0.057534
34.35 	0.051517 	4484 	0.050863
34.39 	0.053088 	4502 	0.052437
34.43 	0.056620 	4539 	0.055459
34.47 	0.054007 	4592 	0.052583
34.51 	0.053843 	4606 	0.053588
34.55 	0.057937 	4643 	0.056675
34.59 	0.058610 	4675 	0.057231
34.63 	0.057749 	4710 	0.057252
34.67 	0.058426 	4741 	0.057438
34.71 	0.058120 	4766 	0.057137
34.75 	0.057196 	4808 	0.056343
34.79 	0.062396 	4824 	0.060646
34.83 	0.050391 	4862 	0.050029
34.87 	0.058546 	4868 	0.057703
34.91 	0.056944 	4882 	0.056224
34.95 	0.057873 	4890 	0.056675
34.99 	0.054115 	4897 	0.053517
35.03 	0.051790 	4943 	0.050961
35.07 	0.056883 	4940 	0.055815
35.11 	0.057004 	4947 	0.055820
35.15 	0.054487 	4937 	0.054012
35.19 	0.057062 	4942 	0.055719
35.23 	0.058645 	4945 	0.058171
35.27 	0.055578 	4948 	0.054986
35.31 	0.058585 	4933 	0.057734
35.35 	0.058681 	4942 	0.058562
35.39 	0.060465 	4945 	0.058807
35.43 	0.058180 	4933 	0.057210
35.47 	0.063070 	4931 	0.061764
35.51 	0.056638 	4926 	0.055925
35.55 	0.057836 	4945 	0.056533
35.59 	0.063296 	4945 	0.061993
35.63 	0.060692 	4943 	0.059625
35.67 	0.060907 	4942 	0.059484
35.71 	0.055702 	4937 	0.055227
35.75 	0.058203 	4931 	0.057134
35.79 	0.051095 	4932 	0.050382
35.83 	0.054994 	4946 	0.054165
35.87 	0.054845 	4923 	0.054607
35.91 	0.053176 	4927 	0.052582
35.95 	0.058979 	4917 	0.058503
35.99 	0.057502 	4939 	0.056908
36.03 	0.061703 	4943 	0.060755
36.07 	0.053047 	4939 	0.052079
36.11 	0.059850 	4929 	0.058899
36.15 	0.057299 	4939 	0.056469
36.19 	0.058907 	4940 	0.058077
36.23 	0.058561 	4935 	0.057236
36.27 	0.058477 	4925 	0.057764
36.31 	0.061080 	4928 	0.059653
36.35 	0.059444 	4929 	0.057642
36.39 	0.058321 	4921 	0.057369
36.43 	0.059456 	4928 	0.058267
36.47 	0.061386 	4936 	0.060199
36.51 	0.061423 	4933 	0.060117
36.55 	0.060280 	4927 	0.058953
36.59 	0.060336 	4939 	0.059249
36.63 	0.062665 	4931 	0.061833
36.67 	0.058824 	4930 	0.057853
36.71 	0.054664 	4921 	0.053592
36.75 	0.052589 	4944 	0.051760
36.79 	0.053851 	4921 	0.053137
36.83 	0.059207 	4915 	0.058372
36.87 	0.060882 	4944 	0.060171
36.91 	0.062943 	4941 	0.061520
36.95 	0.061423 	4933 	0.060354
36.99 	0.060790 	4935 	0.059841
37.03 	0.057271 	4924 	0.056914
37.07 	0.049848 	4935 	0.049373
37.11 	0.056940 	4935 	0.056109
37.15 	0.059279 	4909 	0.058324
37.19 	0.059289 	4925 	0.058576
37.23 	0.061000 	4918 	0.060286
37.27 	0.057417 	4894 	0.056220
37.31 	0.059574 	4935 	0.058744
37.35 	0.060753 	4938 	0.060042
37.39 	0.054958 	4931 	0.054364
37.43 	0.057178 	4932 	0.055852
37.47 	0.057821 	4929 	0.056613
37.51 	0.059193 	4933 	0.058362
37.55 	0.057606 	4930 	0.056299
37.59 	0.054730 	4915 	0.053419
37.63 	0.057735 	4919 	0.056783
37.67 	0.058728 	4904 	0.057633
37.71 	0.051938 	4929 	0.051462
37.75 	0.056883 	4940 	0.055934
37.79 	0.059229 	4930 	0.057685
37.83 	0.059146 	4920 	0.057956
37.87 	0.057502 	4939 	0.056553
37.91 	0.052941 	4930 	0.051515
37.95 	0.061166 	4921 	0.060095
37.99 	0.058428 	4912 	0.057117
38.03 	0.059279 	4909 	0.058563
38.07 	0.065798 	4909 	0.064823
38.11 	0.047619 	4935 	0.047263
38.15 	0.062830 	4918 	0.061639
38.19 	0.056187 	4930 	0.055593
38.23 	0.063386 	4938 	0.062556
38.27 	0.059026 	4930 	0.058313
38.31 	0.067587 	4927 	0.066041
38.35 	0.064123 	4928 	0.063410
38.39 	0.068242 	4909 	0.067407
38.43 	0.067128 	4916 	0.066174
38.47 	0.080293 	4907 	0.078503
38.51 	0.079886 	4932 	0.078105
38.55 	0.075162 	4936 	0.073975
38.59 	0.080219 	4924 	0.077939
38.63 	0.069862 	4924 	0.068434
38.67 	0.077780 	4937 	0.076238
38.71 	0.079813 	4924 	0.077434
38.75 	0.069008 	4927 	0.067799
38.79 	0.074179 	4934 	0.072992
38.83 	0.061801 	4919 	0.060848
38.87 	0.065974 	4911 	0.064782
38.91 	0.061187 	4903 	0.060470
38.95 	0.058764 	4918 	0.058049
38.99 	0.053271 	4937 	0.052322
39.03 	0.055938 	4934 	0.054989
39.07 	0.052193 	4924 	0.051717
39.11 	0.048469 	4931 	0.047875
39.15 	0.045575 	4915 	0.044383
39.19 	0.050031 	4917 	0.049316
39.23 	0.047919 	4925 	0.046491
39.27 	0.050102 	4910 	0.049147
39.31 	0.049140 	4884 	0.048061
39.35 	0.048227 	4935 	0.047752
39.39 	0.045445 	4929 	0.044732
39.43 	0.043584 	4933 	0.043465
39.47 	0.048548 	4923 	0.048310
39.51 	0.047522 	4924 	0.047284
39.55 	0.043911 	4919 	0.043058
39.59 	0.044788 	4912 	0.044550
39.63 	0.038399 	4922 	0.038161
39.67 	0.042540 	4913 	0.041944
39.71 	0.043105 	4895 	0.042627
39.75 	0.044643 	4928 	0.044286
39.79 	0.048518 	4926 	0.047923
39.83 	0.044791 	4934 	0.044316
39.87 	0.051371 	4925 	0.050637
39.91 	0.042462 	4922 	0.041986
39.95 	0.044354 	4915 	0.043758
39.99 	0.041768 	4932 	0.041293
40.03 	0.042208 	4928 	0.041970
40.07 	0.044079 	4923 	0.043603
40.11 	0.044345 	4916 	0.043511
40.15 	0.042744 	4913 	0.042267
40.19 	0.047068 	4929 	0.046355
40.23 	0.044201 	4932 	0.043845
40.27 	0.043751 	4937 	0.043395
40.31 	0.044543 	4939 	0.043950
40.35 	0.042488 	4919 	0.042250
40.39 	0.042993 	4931 	0.042281
40.43 	0.042462 	4922 	0.042224
40.47 	0.044327 	4918 	0.043493
40.51 	0.045307 	4922 	0.044831
40.55 	0.035045 	4908 	0.034806
40.59 	0.039093 	4937 	0.038143
40.63 	0.041785 	4930 	0.041191
40.67 	0.043998 	4932 	0.043405
40.71 	0.041565 	4932 	0.041209
40.75 	0.042385 	4931 	0.041553
40.79 	0.041836 	4924 	0.041003
40.83 	0.040381 	4928 	0.040263
40.87 	0.040990 	4928 	0.040396
40.91 	0.042454 	4923 	0.042097
40.95 	0.045593 	4913 	0.045116
40.99 	0.041836 	4924 	0.041479
41.03 	0.039348 	4905 	0.038611
41.07 	0.039554 	4930 	0.039197
41.11 	0.038501 	4935 	0.038501
41.15 	0.044323 	4941 	0.043612
41.19 	0.040568 	4930 	0.039736
41.23 	0.040696 	4939 	0.039985
41.27 	0.046846 	4931 	0.046253
41.31 	0.037705 	4933 	0.036637
41.35 	0.042730 	4938 	0.042018
41.39 	0.041557 	4933 	0.041438
41.43 	0.044431 	4929 	0.044193
41.47 	0.035932 	4926 	0.035932
41.51 	0.048988 	4940 	0.048395
41.55 	0.036879 	4935 	0.036523
41.59 	0.041354 	4933 	0.040998
41.63 	0.038072 	4938 	0.037835
41.67 	0.040081 	4940 	0.039725
41.71 	0.037698 	4934 	0.037104
41.75 	0.039156 	4929 	0.038562
41.79 	0.040049 	4944 	0.039812
41.83 	0.038149 	4928 	0.038149
41.87 	0.047619 	4935 	0.046907
41.91 	0.046191 	4936 	0.046073
41.95 	0.040763 	4931 	0.040287
41.99 	0.035066 	4905 	0.034827
42.03 	0.042316 	4939 	0.041605
42.07 	0.039093 	4937 	0.038381
42.11 	0.038625 	4945 	0.037914
42.15 	0.038072 	4938 	0.037242
42.19 	0.040546 	4908 	0.040188
42.23 	0.039861 	4892 	0.039023
42.27 	0.034879 	4874 	0.034038
42.31 	0.042430 	4855 	0.042310
42.35 	0.044233 	4838 	0.043628
42.39 	0.038718 	4804 	0.037742
42.43 	0.040693 	4792 	0.040082
42.47 	0.038405 	4765 	0.038036
42.51 	0.043222 	4743 	0.042728
42.55 	0.032923 	4708 	0.032549
42.59 	0.030662 	4729 	0.030414
42.63 	0.044383 	4709 	0.043512
42.67 	0.034372 	4684 	0.033997
42.71 	0.035599 	4663 	0.035097
42.75 	0.042452 	4617 	0.041944
42.79 	0.034701 	4582 	0.034573
42.83 	0.040123 	4536 	0.039478
42.87 	0.042454 	4499 	0.041803
42.91 	0.035233 	4456 	0.034839
42.95 	0.039402 	4416 	0.039004
42.99 	0.037856 	4385 	0.037188
43.03 	0.039003 	4333 	0.038192
43.07 	0.038873 	4296 	0.038737
43.11 	0.043243 	4255 	0.042693
43.15 	0.044460 	4206 	0.043602
43.19 	0.036719 	4194 	0.036300
43.23 	0.037554 	4154 	0.036990
43.27 	0.044336 	4105 	0.043599
43.31 	0.035793 	4079 	0.034931
43.35 	0.036458 	4032 	0.035732
43.39 	0.036982 	4002 	0.035957
43.43 	0.038889 	3960 	0.038445
43.47 	0.037490 	3921 	0.037192
43.51 	0.033015 	3877 	0.032864
43.55 	0.034413 	2964 	0.033820
43.59 	0.038373 	1746 	0.038373
43.63 	0.031968 	1001 	0.031968
43.67 	0.029880 	502 	0.028714
43.71 	0.020921 	239 	0.020921
43.75 	0.000000 	16 	0.000000