File: Example_Data/25SC_s1_0048.004.dat
#F C:\frames\spec\25SC_s1_0048.004
#C title =s:48 frm:4 25SC_s1
#C wavelength =0.15406

#S 1  fr_average C:\frames\spec\25SC_s1_0048.004 C:\win32app\speccom\mask.axs chi 0 180 0 360 0.02
#C 2 theta =0.000000 to 180 deg
#C   q   =0.000000 to 81.568 nm^-1
#C  chi  =0.000000 to 360 deg
#C collumns:
#C  1 position (2theta or chi in degrees)
#C  2 average intensity (sum of all counts in the region divided with number of pixels)
#C  3 Number of pixels in region)
#C  4 error (sum of sqrt(intensity) for all pixels divided by number)
#N 4
#L TTh  Int  N_pix  Err
32.99 	0.032787 	61 	0.032787
33.03 	0.062545 	1391 	0.062124
33.07 	0.059512 	2050 	0.059226
33.11 	0.062815 	2579 	0.062134
33.15 	0.051684 	2999 	0.050903
33.19 	0.061041 	3342 	0.060165
33.23 	0.061311 	3523 	0.060480
33.27 	0.057851 	3630 	0.056399
33.31 	0.054098 	3660 	0.053272
33.35 	0.054683 	3694 	0.053732
33.39 	0.065165 	3729 	0.063751
33.43 	0.054773 	3761 	0.053838
33.47 	0.065561 	3798 	0.063864
33.51 	0.062910 	3815 	0.061528
33.55 	0.060630 	3843 	0.060020
33.59 	0.053093 	3880 	0.052640
33.63 	0.063281 	3919 	0.061637
33.67 	0.053870 	3954 	0.053129
33.71 	0.061132 	3975 	0.060543
33.75 	0.056764 	3999 	0.056325
33.79 	0.055432 	4041 	0.053837
33.83 	0.049630 	4050 	0.049340
33.87 	0.052542 	4111 	0.051545
33.91 	0.066040 	4149 	0.064769
33.95 	0.056924 	4181 	0.056201
33.99 	0.051905 	4200 	0.051207
34.03 	0.058200 	4244 	0.056682
34.07 	0.061856 	4268 	0.060598
34.11 	0.054858 	4302 	0.053769
34.15 	0.062572 	4331 	0.060949
34.19 	0.057084 	4362 	0.055607
34.23 	0.054177 	4393 	0.054044
34.27 	0.057214 	4422 	0.056154
34.31 	0.057649 	4458 	0.056729
34.35 	0.052409 	4484 	0.051473
34.39 	0.059529 	4502 	0.058748
34.43 	0.051333 	4539 	0.050559
34.47 	0.057056 	4592 	0.056035
34.51 	0.055363 	4606 	0.054727
34.55 	0.065906 	4643 	0.065023
34.59 	0.054118 	4675 	0.053491
34.63 	0.061571 	4710 	0.060203
34.67 	0.056317 	4741 	0.055329
34.71 	0.059169 	4766 	0.058186
34.75 	0.056780 	4808 	0.055806
34.79 	0.057214 	4824 	0.055878
34.83 	0.056767 	4862 	0.055682
34.87 	0.059573 	4868 	0.058249
34.91 	0.056329 	4882 	0.055249
34.95 	0.060532 	4890 	0.059693
34.99 	0.059220 	4897 	0.058383
35.03 	0.057860 	4943 	0.056438
35.07 	0.059514 	4940 	0.059040
35.11 	0.055791 	4947 	0.054726
35.15 	0.054284 	4937 	0.053335
35.19 	0.061311 	4942 	0.060481
35.23 	0.057634 	4945 	0.057397
35.27 	0.052749 	4948 	0.051920
35.31 	0.053720 	4933 	0.052988
35.35 	0.060704 	4942 	0.059874
35.39 	0.057027 	4945 	0.056179
35.43 	0.059396 	4933 	0.058565
35.47 	0.056175 	4931 	0.054393
35.51 	0.057044 	4926 	0.055855
35.55 	0.063903 	4945 	0.062600
35.59 	0.057230 	4945 	0.056637
35.63 	0.060085 	4943 	0.059611
35.67 	0.059895 	4942 	0.058828
35.71 	0.056917 	4937 	0.055968
35.75 	0.063476 	4931 	0.061932
35.79 	0.059611 	4932 	0.058542
35.83 	0.050344 	4946 	0.049870
35.87 	0.052001 	4923 	0.051287
35.91 	0.063528 	4927 	0.061744
35.95 	0.057555 	4917 	0.056841
35.99 	0.058311 	4939 	0.057481
36.03 	0.055634 	4943 	0.055042
36.07 	0.059121 	4939 	0.057698
36.11 	0.062893 	4929 	0.062061
36.15 	0.055882 	4939 	0.054814
36.19 	0.058097 	4940 	0.057504
36.23 	0.053698 	4935 	0.052986
36.27 	0.056650 	4925 	0.055698
36.31 	0.059862 	4928 	0.059030
36.35 	0.049706 	4929 	0.048993
36.39 	0.060354 	4921 	0.059144
36.43 	0.058644 	4928 	0.057456
36.47 	0.053079 	4936 	0.052011
36.51 	0.056152 	4933 	0.055915
36.55 	0.052973 	4927 	0.052359
36.59 	0.049605 	4939 	0.048656
36.63 	0.057189 	4931 	0.056001
36.67 	0.053347 	4930 	0.052872
36.71 	0.056289 	4921 	0.055218
36.75 	0.065332 	4944 	0.064621
36.79 	0.059541 	4921 	0.058588
36.83 	0.056562 	4915 	0.055966
36.87 	0.056837 	4944 	0.055889
36.91 	0.049180 	4941 	0.048232
36.95 	0.056558 	4933 	0.055489
36.99 	0.059574 	4935 	0.058744
37.03 	0.059911 	4924 	0.058959
37.07 	0.054914 	4935 	0.054439
37.11 	0.054103 	4935 	0.053510
37.15 	0.051538 	4909 	0.050703
37.19 	0.060711 	4925 	0.059283
37.23 	0.055714 	4918 	0.054503
37.27 	0.053944 	4894 	0.053465
37.31 	0.056940 	4935 	0.055872
37.35 	0.061968 	4938 	0.060426
37.39 	0.053944 	4931 	0.053588
37.43 	0.061841 	4932 	0.060891
37.47 	0.056198 	4929 	0.055366
37.51 	0.055747 	4933 	0.055035
37.55 	0.055578 	4930 	0.054984
37.59 	0.054527 	4915 	0.053454
37.63 	0.051637 	4919 	0.051041
37.67 	0.053630 	4904 	0.052316
37.71 	0.059241 	4929 	0.057934
37.75 	0.049798 	4940 	0.049205
37.79 	0.056389 	4930 	0.055914
37.83 	0.055691 	4920 	0.054858
37.87 	0.052237 	4939 	0.051170
37.91 	0.050913 	4930 	0.050081
37.95 	0.057915 	4921 	0.056943
37.99 	0.051710 	4912 	0.050856
38.03 	0.050316 	4909 	0.049838
38.07 	0.057038 	4909 	0.056083
38.11 	0.052077 	4935 	0.050870
38.15 	0.055510 	4918 	0.054081
38.19 	0.058824 	4930 	0.058111
38.23 	0.051235 	4938 	0.050405
38.27 	0.057201 	4930 	0.056013
38.31 	0.058859 	4927 	0.057552
38.35 	0.060065 	4928 	0.058995
38.39 	0.066612 	4909 	0.065180
38.43 	0.067331 	4916 	0.066001
38.47 	0.063786 	4907 	0.062712
38.51 	0.063260 	4932 	0.061598
38.55 	0.063412 	4936 	0.061869
38.59 	0.066816 	4924 	0.065864
38.63 	0.066409 	4924 	0.064863
38.67 	0.061171 	4937 	0.060558
38.71 	0.056661 	4924 	0.055710
38.75 	0.066572 	4927 	0.065026
38.79 	0.060397 	4934 	0.059210
38.83 	0.055906 	4919 	0.054596
38.87 	0.047852 	4911 	0.046898
38.91 	0.056700 	4903 	0.056222
38.95 	0.048394 	4918 	0.047679
38.99 	0.053676 	4937 	0.052708
39.03 	0.054520 	4934 	0.053056
39.07 	0.049756 	4924 	0.049161
39.11 	0.053539 	4931 	0.052945
39.15 	0.045778 	4915 	0.045659
39.19 	0.056742 	4917 	0.055650
39.23 	0.057056 	4925 	0.055866
39.27 	0.051731 	4910 	0.050657
39.31 	0.046274 	4884 	0.045674
39.35 	0.048227 	4935 	0.047871
39.39 	0.057212 	4929 	0.056499
39.43 	0.049057 	4933 	0.048701
39.47 	0.052407 	4923 	0.050722
39.51 	0.054224 	4924 	0.053510
39.55 	0.051840 	4919 	0.051244
39.59 	0.060057 	4912 	0.058626
39.63 	0.054043 	4922 	0.053091
39.67 	0.057195 	4913 	0.055387
39.71 	0.056384 	4895 	0.055546
39.75 	0.057630 	4928 	0.056560
39.79 	0.051969 	4926 	0.051137
39.83 	0.057154 	4934 	0.055967
39.87 	0.052995 	4925 	0.051924
39.91 	0.055465 	4922 	0.054989
39.95 	0.052899 	4915 	0.052542
39.99 	0.061436 	4932 	0.060367
40.03 	0.057021 	4928 	0.056427
40.07 	0.052813 	4923 	0.051980
40.11 	0.054516 	4916 	0.053563
40.15 	0.051700 	4913 	0.050984
40.19 	0.048894 	4929 	0.048181
40.23 	0.053528 	4932 	0.053409
40.27 	0.052258 	4937 	0.051902
40.31 	0.049200 	4939 	0.047757
40.35 	0.056312 	4919 	0.055836
40.39 	0.048672 	4931 	0.047603
40.43 	0.057294 	4922 	0.056342
40.47 	0.052867 	4918 	0.052152
40.51 	0.049777 	4922 	0.049062
40.55 	0.055827 	4908 	0.054992
40.59 	0.049220 	4937 	0.048508
40.63 	0.046653 	4930 	0.046416
40.67 	0.051703 	4932 	0.050991
40.71 	0.047242 	4932 	0.046649
40.75 	0.049888 	4931 	0.049176
40.79 	0.055240 	4924 	0.054645
40.83 	0.049310 	4928 	0.048835
40.87 	0.054992 	4928 	0.054160
40.91 	0.049360 	4923 	0.048270
40.95 	0.049257 	4913 	0.048661
40.99 	0.049147 	4924 	0.048433
41.03 	0.054434 	4905 	0.053121
41.07 	0.046856 	4930 	0.046143
41.11 	0.046403 	4935 	0.045572
41.15 	0.056669 	4941 	0.056076
41.19 	0.051521 	4930 	0.050690
41.23 	0.047378 	4939 	0.047022
41.27 	0.053742 	4931 	0.052672
41.31 	0.052301 	4933 	0.051450
41.35 	0.052045 	4938 	0.051808
41.39 	0.051693 	4933 	0.051317
41.43 	0.048489 	4929 	0.048132
41.47 	0.047300 	4926 	0.046785
41.51 	0.050810 	4940 	0.050335
41.55 	0.051266 	4935 	0.050792
41.59 	0.050071 	4933 	0.049477
41.63 	0.048603 	4938 	0.047397
41.67 	0.047773 	4940 	0.047536
41.71 	0.049858 	4934 	0.048651
41.75 	0.051329 	4929 	0.050497
41.79 	0.050162 	4944 	0.049332
41.83 	0.052557 	4928 	0.051844
41.87 	0.049037 	4935 	0.048207
41.91 	0.043355 	4936 	0.042386
41.95 	0.043805 	4931 	0.043211
41.99 	0.046891 	4905 	0.045697
42.03 	0.047580 	4939 	0.046869
42.07 	0.043144 	4937 	0.042906
42.11 	0.050961 	4945 	0.049875
42.15 	0.043742 	4938 	0.042912
42.19 	0.047066 	4908 	0.046589
42.23 	0.051717 	4892 	0.050759
42.27 	0.042881 	4874 	0.042640
42.31 	0.045108 	4855 	0.044505
42.35 	0.050641 	4838 	0.050156
42.39 	0.044546 	4804 	0.043937
42.43 	0.048414 	4792 	0.047803
42.47 	0.049948 	4765 	0.049825
42.51 	0.051023 	4743 	0.050405
42.55 	0.053314 	4708 	0.052567
42.59 	0.046944 	4729 	0.046429
42.63 	0.049692 	4709 	0.049194
42.67 	0.050598 	4684 	0.049347
42.71 	0.051469 	4663 	0.050841
42.75 	0.045051 	4617 	0.044543
42.79 	0.049105 	4582 	0.048722
42.83 	0.044533 	4536 	0.043887
42.87 	0.052456 	4499 	0.051805
42.91 	0.050269 	4456 	0.049349
42.95 	0.047328 	4416 	0.046267
42.99 	0.044242 	4385 	0.043841
43.03 	0.042926 	4333 	0.042386
43.07 	0.049814 	4296 	0.049405
43.11 	0.045593 	4255 	0.045180
43.15 	0.040418 	4206 	0.039861
43.19 	0.042203 	4194 	0.041644
43.23 	0.044776 	4154 	0.044353
43.27 	0.046041 	4105 	0.045043
43.31 	0.041187 	4079 	0.040325
43.35 	0.046875 	4032 	0.046730
43.39 	0.049475 	4002 	0.048890
43.43 	0.041667 	3960 	0.040779
43.47 	0.046162 	3921 	0.045415
43.51 	0.052876 	3877 	0.051818
43.55 	0.043522 	2964 	0.043325
43.59 	0.043528 	1746 	0.042186
43.63 	0.034965 	1001 	0.034965
43.67 	0.047809 	502 	0.046642
43.71 	0.050209 	239 	0.050209
43.75 	0.000000 	16 	0.000000