File: Example_Data/25SC_s1_0007.001.dat
#F C:\frames\spec\25SC_s1_0007.001
#C title =s:7 frm:1 25SC_s1
#C wavelength =0.15406

#S 1  fr_average C:\frames\spec\25SC_s1_0007.001 C:\win32app\speccom\mask.axs chi 0 180 0 360 0.02
#C 2 theta =0.000000 to 180 deg
#C   q   =0.000000 to 81.568 nm^-1
#C  chi  =0.000000 to 360 deg
#C collumns:
#C  1 position (2theta or chi in degrees)
#C  2 average intensity (sum of all counts in the region divided with number of pixels)
#C  3 Number of pixels in region)
#C  4 error (sum of sqrt(intensity) for all pixels divided by number)
#N 4
#L TTh  Int  N_pix  Err
32.99 	0.065574 	61 	0.065574
33.03 	0.056794 	1391 	0.054267
33.07 	0.059024 	2050 	0.057881
33.11 	0.062427 	2579 	0.061292
33.15 	0.064355 	2999 	0.063769
33.19 	0.052663 	3342 	0.051787
33.23 	0.052512 	3523 	0.051514
33.27 	0.052342 	3630 	0.051373
33.31 	0.056557 	3660 	0.055597
33.35 	0.054413 	3694 	0.053778
33.39 	0.055511 	3729 	0.054883
33.43 	0.055039 	3761 	0.054104
33.47 	0.060821 	3798 	0.059896
33.51 	0.059240 	3815 	0.057704
33.55 	0.061150 	3843 	0.059626
33.59 	0.060309 	3880 	0.058624
33.63 	0.069150 	3919 	0.067805
33.67 	0.058422 	3954 	0.058126
33.71 	0.048302 	3975 	0.047712
33.75 	0.064766 	3999 	0.063155
33.79 	0.056917 	4041 	0.055757
33.83 	0.057778 	4050 	0.056476
33.87 	0.063002 	4111 	0.061862
33.91 	0.057604 	4149 	0.056757
33.95 	0.064099 	4181 	0.062558
33.99 	0.053571 	4200 	0.053014
34.03 	0.057022 	4244 	0.055779
34.07 	0.052249 	4268 	0.051289
34.11 	0.059740 	4302 	0.058650
34.15 	0.055645 	4331 	0.055104
34.19 	0.059147 	4362 	0.058207
34.23 	0.062144 	4393 	0.061478
34.27 	0.058345 	4422 	0.057417
34.31 	0.050022 	4458 	0.049103
34.35 	0.057092 	4484 	0.056961
34.39 	0.065304 	4502 	0.063613
34.43 	0.060145 	4539 	0.059221
34.47 	0.061847 	4592 	0.061336
34.51 	0.054711 	4606 	0.053948
34.55 	0.053629 	4643 	0.052494
34.59 	0.057112 	4675 	0.055588
34.63 	0.053715 	4710 	0.052721
34.67 	0.058637 	4741 	0.058267
34.71 	0.059589 	4766 	0.059097
34.75 	0.052413 	4808 	0.051682
34.79 	0.052239 	4824 	0.051753
34.83 	0.052036 	4862 	0.051072
34.87 	0.055670 	4868 	0.054466
34.91 	0.059812 	4882 	0.058352
34.95 	0.060123 	4890 	0.059284
34.99 	0.055136 	4897 	0.054538
35.03 	0.057657 	4943 	0.056472
35.07 	0.055263 	4940 	0.054295
35.11 	0.061047 	4947 	0.059981
35.15 	0.059753 	4937 	0.059160
35.19 	0.059288 	4942 	0.058695
35.23 	0.061476 	4945 	0.060647
35.27 	0.053355 	4948 	0.052289
35.31 	0.064464 	4933 	0.062683
35.35 	0.056860 	4942 	0.055911
35.39 	0.055410 	4945 	0.054817
35.43 	0.058382 	4933 	0.057551
35.47 	0.060434 	4931 	0.059602
35.51 	0.056841 	4926 	0.056128
35.55 	0.058645 	4945 	0.057934
35.59 	0.065521 	4945 	0.064455
35.63 	0.058669 	4943 	0.057128
35.67 	0.062728 	4942 	0.061404
35.71 	0.055297 	4937 	0.054565
35.75 	0.059826 	4931 	0.058994
35.79 	0.060624 	4932 	0.059080
35.83 	0.064497 	4946 	0.063431
35.87 	0.056267 	4923 	0.055791
35.91 	0.063325 	4927 	0.062373
35.95 	0.058979 	4917 	0.057907
35.99 	0.061348 	4939 	0.060162
36.03 	0.052397 	4943 	0.051686
36.07 	0.057704 	4939 	0.056637
36.11 	0.058633 	4929 	0.058157
36.15 	0.062361 	4939 	0.060918
36.19 	0.060121 	4940 	0.059410
36.23 	0.058561 	4935 	0.057730
36.27 	0.059289 	4925 	0.058537
36.31 	0.053166 	4928 	0.051838
36.35 	0.058835 	4929 	0.057528
36.39 	0.054664 	4921 	0.053830
36.43 	0.061080 	4928 	0.059891
36.47 	0.055713 	4936 	0.054626
36.51 	0.063856 	4933 	0.062431
36.55 	0.064745 	4927 	0.063319
36.59 	0.058716 	4939 	0.058479
36.63 	0.062868 	4931 	0.060729
36.67 	0.058215 	4930 	0.057502
36.71 	0.067060 	4921 	0.066088
36.75 	0.056432 	4944 	0.055247
36.79 	0.062589 	4921 	0.061399
36.83 	0.061851 	4915 	0.061256
36.87 	0.058050 	4944 	0.057576
36.91 	0.063955 	4941 	0.062157
36.95 	0.064869 	4933 	0.063444
36.99 	0.064843 	4935 	0.063656
37.03 	0.060317 	4924 	0.059008
37.07 	0.060790 	4935 	0.059465
37.11 	0.056535 	4935 	0.055585
37.15 	0.054797 	4909 	0.054439
37.19 	0.065381 	4925 	0.064191
37.23 	0.056934 	4918 	0.056219
37.27 	0.058030 	4894 	0.056953
37.31 	0.058967 	4935 	0.057423
37.35 	0.056703 	4938 	0.055280
37.39 	0.060637 	4931 	0.059092
37.43 	0.056772 	4932 	0.055822
37.47 	0.062487 	4929 	0.061655
37.51 	0.056355 	4933 	0.055286
37.55 	0.053144 	4930 	0.052550
37.59 	0.056358 	4915 	0.055762
37.63 	0.053669 	4919 	0.053074
37.67 	0.052610 	4904 	0.051774
37.71 	0.060459 	4929 	0.059627
37.75 	0.061538 	4940 	0.060353
37.79 	0.056795 	4930 	0.056082
37.83 	0.058740 	4920 	0.057668
37.87 	0.057097 	4939 	0.055436
37.91 	0.050101 	4930 	0.049507
37.95 	0.053648 	4921 	0.052457
37.99 	0.057818 	4912 	0.057221
38.03 	0.054797 	4909 	0.054320
38.07 	0.057242 	4909 	0.056526
38.11 	0.053698 	4935 	0.052274
38.15 	0.053884 	4918 	0.053030
38.19 	0.055984 	4930 	0.054895
38.23 	0.055286 	4938 	0.054099
38.27 	0.055375 	4930 	0.054405
38.31 	0.058250 	4927 	0.057418
38.35 	0.060065 	4928 	0.058757
38.39 	0.061927 	4909 	0.061092
38.43 	0.062856 	4916 	0.061545
38.47 	0.069900 	4907 	0.068109
38.51 	0.071979 	4932 	0.071029
38.55 	0.073136 	4936 	0.072305
38.59 	0.070877 	4924 	0.069569
38.63 	0.081032 	4924 	0.079128
38.67 	0.067855 	4937 	0.066787
38.71 	0.074127 	4924 	0.072699
38.75 	0.075096 	4927 	0.073194
38.79 	0.070328 	4934 	0.069122
38.83 	0.066680 	4919 	0.065370
38.87 	0.060069 	4911 	0.058857
38.91 	0.058944 	4903 	0.058346
38.95 	0.052867 	4918 	0.051537
38.99 	0.055499 	4937 	0.054056
39.03 	0.053912 	4934 	0.052487
39.07 	0.049959 	4924 	0.049484
39.11 	0.044616 	4931 	0.043784
39.15 	0.052492 	4915 	0.051400
39.19 	0.046980 	4917 	0.046622
39.23 	0.047919 	4925 	0.047324
39.27 	0.047658 	4910 	0.047061
39.31 	0.047297 	4884 	0.046818
39.35 	0.049037 	4935 	0.048207
39.39 	0.043011 	4929 	0.042179
39.43 	0.049057 	4933 	0.048582
39.47 	0.048345 	4923 	0.047512
39.51 	0.044679 	4924 	0.044203
39.55 	0.046961 	4919 	0.046961
39.59 	0.047638 	4912 	0.047281
39.63 	0.041447 	4922 	0.041328
39.67 	0.044576 	4913 	0.043622
39.71 	0.044740 	4895 	0.044261
39.75 	0.040584 	4928 	0.039633
39.79 	0.042428 	4926 	0.042071
39.83 	0.045399 	4934 	0.044806
39.87 	0.046904 	4925 	0.046190
39.91 	0.042259 	4922 	0.041783
39.95 	0.046185 	4915 	0.045589
39.99 	0.047445 	4932 	0.046614
40.03 	0.043019 	4928 	0.042663
40.07 	0.049360 	4923 	0.048408
40.11 	0.045972 	4916 	0.045615
40.15 	0.044169 	4913 	0.043811
40.19 	0.044431 	4929 	0.044074
40.23 	0.045823 	4932 	0.044992
40.27 	0.037675 	4937 	0.037319
40.31 	0.046771 	4939 	0.046178
40.35 	0.042285 	4919 	0.041690
40.39 	0.047455 	4931 	0.046386
40.43 	0.046526 	4922 	0.046169
40.47 	0.042090 	4918 	0.041852
40.51 	0.045510 	4922 	0.045153
40.55 	0.044621 	4908 	0.043905
40.59 	0.043549 	4937 	0.043074
40.63 	0.045030 	4930 	0.044793
40.67 	0.047242 	4932 	0.047005
40.71 	0.046229 	4932 	0.045516
40.75 	0.043399 	4931 	0.043043
40.79 	0.040617 	4924 	0.040142
40.83 	0.044237 	4928 	0.043643
40.87 	0.040584 	4928 	0.039990
40.91 	0.041032 	4923 	0.040913
40.95 	0.043965 	4913 	0.043250
40.99 	0.039399 	4924 	0.038923
41.03 	0.040367 	4905 	0.040248
41.07 	0.045639 	4930 	0.045045
41.11 	0.042351 	4935 	0.042232
41.15 	0.043918 	4941 	0.043563
41.19 	0.041988 	4930 	0.041631
41.23 	0.045758 	4939 	0.045402
41.27 	0.042588 	4931 	0.041994
41.31 	0.042773 	4933 	0.041823
41.35 	0.041312 	4938 	0.040838
41.39 	0.037705 	4933 	0.037349
41.43 	0.042605 	4929 	0.041773
41.47 	0.040804 	4926 	0.040209
41.51 	0.042915 	4940 	0.042322
41.55 	0.047619 	4935 	0.046432
41.59 	0.040138 	4933 	0.039900
41.63 	0.045160 	4938 	0.044804
41.67 	0.040486 	4940 	0.039893
41.71 	0.043778 	4934 	0.043540
41.75 	0.043822 	4929 	0.043109
41.79 	0.043487 	4944 	0.043132
41.83 	0.047281 	4928 	0.046805
41.87 	0.042148 	4935 	0.041554
41.91 	0.039911 	4936 	0.039674
41.95 	0.035287 	4931 	0.034812
41.99 	0.045260 	4905 	0.044782
42.03 	0.044138 	4939 	0.043545
42.07 	0.042333 	4937 	0.041859
42.11 	0.041658 	4945 	0.041303
42.15 	0.041515 	4938 	0.040803
42.19 	0.043602 	4908 	0.043125
42.23 	0.037204 	4892 	0.036725
42.27 	0.041239 	4874 	0.040999
42.31 	0.042430 	4855 	0.041827
42.35 	0.040099 	4838 	0.039494
42.39 	0.043297 	4804 	0.042931
42.43 	0.041528 	4792 	0.041039
42.47 	0.039454 	4765 	0.038840
42.51 	0.039848 	4743 	0.039725
42.55 	0.038445 	4708 	0.037823
42.59 	0.039966 	4729 	0.039718
42.63 	0.040348 	4709 	0.039851
42.67 	0.043553 	4684 	0.043302
42.71 	0.036672 	4663 	0.036420
42.75 	0.039853 	4617 	0.039091
42.79 	0.043867 	4582 	0.043484
42.83 	0.042989 	4536 	0.042344
42.87 	0.033118 	4499 	0.032858
42.91 	0.045557 	4456 	0.044899
42.95 	0.037364 	4416 	0.037099
42.99 	0.038997 	4385 	0.038596
43.03 	0.032079 	4333 	0.031403
43.07 	0.032123 	4296 	0.031714
43.11 	0.035253 	4255 	0.034427
43.15 	0.041132 	4206 	0.040575
43.19 	0.036719 	4194 	0.036300
43.23 	0.037554 	4154 	0.037131
43.27 	0.041900 	4105 	0.041472
43.31 	0.038980 	4079 	0.038693
43.35 	0.038194 	4032 	0.037759
43.39 	0.038231 	4002 	0.037938
43.43 	0.040152 	3960 	0.039856
43.47 	0.039276 	3921 	0.038678
43.51 	0.040495 	3877 	0.039740
43.55 	0.037449 	2964 	0.037054
43.59 	0.034937 	1746 	0.033930
43.63 	0.033966 	1001 	0.033381
43.67 	0.039841 	502 	0.037507
43.71 	0.025105 	239 	0.025105
43.75 	0.000000 	16 	0.000000