File: Example_Data/25SC_s1_0012.003.dat
#F C:\frames\spec\25SC_s1_0012.003
#C title =s:12 frm:3 25SC_s1
#C wavelength =0.15406

#S 1  fr_average C:\frames\spec\25SC_s1_0012.003 C:\win32app\speccom\mask.axs chi 0 180 0 360 0.02
#C 2 theta =0.000000 to 180 deg
#C   q   =0.000000 to 81.568 nm^-1
#C  chi  =0.000000 to 360 deg
#C collumns:
#C  1 position (2theta or chi in degrees)
#C  2 average intensity (sum of all counts in the region divided with number of pixels)
#C  3 Number of pixels in region)
#C  4 error (sum of sqrt(intensity) for all pixels divided by number)
#N 4
#L TTh  Int  N_pix  Err
32.99 	0.049180 	61 	0.049180
33.03 	0.064702 	1391 	0.063438
33.07 	0.076098 	2050 	0.073765
33.11 	0.058162 	2579 	0.057254
33.15 	0.063021 	2999 	0.061849
33.19 	0.061041 	3342 	0.059814
33.23 	0.058189 	3523 	0.057358
33.27 	0.057576 	3630 	0.056769
33.31 	0.056831 	3660 	0.055390
33.35 	0.061180 	3694 	0.060229
33.39 	0.059802 	3729 	0.059330
33.43 	0.055304 	3761 	0.054993
33.47 	0.061875 	3798 	0.060307
33.51 	0.056094 	3815 	0.055634
33.55 	0.055686 	3843 	0.055076
33.59 	0.070361 	3880 	0.069455
33.63 	0.063537 	3919 	0.062789
33.67 	0.069550 	3954 	0.068068
33.71 	0.059119 	3975 	0.057351
33.75 	0.058015 	3999 	0.056696
33.79 	0.063351 	4041 	0.062191
33.83 	0.060988 	4050 	0.059541
33.87 	0.059839 	4111 	0.058700
33.91 	0.061220 	4149 	0.059949
33.95 	0.055728 	4181 	0.054607
33.99 	0.058810 	4200 	0.057415
34.03 	0.058671 	4244 	0.057291
34.07 	0.070056 	4268 	0.069233
34.11 	0.059740 	4302 	0.059195
34.15 	0.060032 	4331 	0.059086
34.19 	0.058459 	4362 	0.057385
34.23 	0.059413 	4393 	0.058057
34.27 	0.061511 	4422 	0.060981
34.31 	0.062135 	4458 	0.061478
34.35 	0.063336 	4484 	0.062291
34.39 	0.063972 	4502 	0.062670
34.43 	0.063891 	4539 	0.062600
34.47 	0.063807 	4592 	0.062148
34.51 	0.058836 	4606 	0.057946
34.55 	0.059014 	4643 	0.057752
34.59 	0.061818 	4675 	0.061192
34.63 	0.063907 	4710 	0.063036
34.67 	0.057161 	4741 	0.056543
34.71 	0.065254 	4766 	0.064271
34.75 	0.060316 	4808 	0.059220
34.79 	0.058872 	4824 	0.058629
34.83 	0.062320 	4862 	0.061477
34.87 	0.064708 	4868 	0.063746
34.91 	0.062679 	4882 	0.061839
34.95 	0.062986 	4890 	0.061409
34.99 	0.061875 	4897 	0.060918
35.03 	0.067166 	4943 	0.066080
35.07 	0.056478 	4940 	0.055628
35.11 	0.057004 	4947 	0.056294
35.15 	0.062184 	4937 	0.061234
35.19 	0.060907 	4942 	0.060077
35.23 	0.060667 	4945 	0.059720
35.27 	0.065885 	4948 	0.064465
35.31 	0.058788 	4933 	0.058075
35.35 	0.062930 	4942 	0.061626
35.39 	0.060667 	4945 	0.059720
35.43 	0.057571 	4933 	0.056859
35.47 	0.054553 	4931 	0.053484
35.51 	0.060292 	4926 	0.059222
35.55 	0.055612 	4945 	0.054664
35.59 	0.066330 	4945 	0.065027
35.63 	0.061097 	4943 	0.059793
35.67 	0.060502 	4942 	0.059317
35.71 	0.061373 	4937 	0.060187
35.75 	0.065707 	4931 	0.064024
35.79 	0.059002 	4932 	0.057933
35.83 	0.062070 	4946 	0.061478
35.87 	0.058298 	4923 	0.057941
35.91 	0.059671 	4927 	0.058601
35.95 	0.051658 	4917 	0.051062
35.99 	0.061348 	4939 	0.060400
36.03 	0.061097 	4943 	0.060010
36.07 	0.057704 	4939 	0.057111
36.11 	0.055184 	4929 	0.054570
36.15 	0.054464 	4939 	0.053160
36.19 	0.062348 	4940 	0.061518
36.23 	0.059777 	4935 	0.058946
36.27 	0.052995 	4925 	0.051548
36.31 	0.058036 	4928 	0.056827
36.35 	0.060053 	4929 	0.058627
36.39 	0.064418 	4921 	0.063108
36.43 	0.065544 	4928 	0.064474
36.47 	0.061386 	4936 	0.060318
36.51 	0.064058 	4933 	0.063346
36.55 	0.062107 	4927 	0.061750
36.59 	0.059526 	4939 	0.058577
36.63 	0.061042 	4931 	0.060291
36.67 	0.056998 	4930 	0.055642
36.71 	0.057305 	4921 	0.056115
36.75 	0.057241 	4944 	0.055819
36.79 	0.054054 	4921 	0.052864
36.83 	0.062665 	4915 	0.061473
36.87 	0.063511 	4944 	0.062563
36.91 	0.050597 	4941 	0.049411
36.95 	0.061220 	4933 	0.060745
36.99 	0.062209 	4935 	0.061615
37.03 	0.053209 	4924 	0.052257
37.07 	0.058156 	4935 	0.057206
37.11 	0.053293 	4935 	0.052225
37.15 	0.050519 	4909 	0.050042
37.19 	0.056650 	4925 	0.055579
37.23 	0.051647 	4918 	0.051290
37.27 	0.061913 	4894 	0.060835
37.31 	0.054711 	4935 	0.054355
37.35 	0.053058 	4938 	0.052346
37.39 	0.061042 	4931 	0.060686
37.43 	0.060219 	4932 	0.058912
37.47 	0.054372 	4929 	0.053421
37.51 	0.058585 	4933 	0.057991
37.55 	0.056998 	4930 	0.055414
37.59 	0.047406 	4915 	0.046572
37.63 	0.054076 	4919 	0.053242
37.67 	0.057912 	4904 	0.057195
37.71 	0.050517 	4929 	0.049785
37.75 	0.055668 	4940 	0.054601
37.79 	0.053955 	4930 	0.053005
37.83 	0.052642 	4920 	0.052027
37.87 	0.057502 	4939 	0.056078
37.91 	0.058824 	4930 	0.058229
37.95 	0.051006 	4921 	0.050054
37.99 	0.058021 	4912 	0.056809
38.03 	0.053575 	4909 	0.052740
38.07 	0.052964 	4909 	0.051771
38.11 	0.051672 	4935 	0.050841
38.15 	0.053680 	4918 	0.053323
38.19 	0.056795 	4930 	0.056201
38.23 	0.057513 	4938 	0.056545
38.27 	0.051927 	4930 	0.051571
38.31 	0.053785 	4927 	0.052477
38.35 	0.062094 	4928 	0.060767
38.39 	0.056223 	4909 	0.055269
38.43 	0.056347 	4916 	0.055036
38.47 	0.059507 	4907 	0.058791
38.51 	0.062449 	4932 	0.061855
38.55 	0.063817 	4936 	0.062017
38.59 	0.066206 	4924 	0.064779
38.63 	0.065394 	4924 	0.064323
38.67 	0.059145 	4937 	0.058789
38.71 	0.058895 	4924 	0.058300
38.75 	0.061904 	4927 	0.059586
38.79 	0.049655 	4934 	0.048706
38.83 	0.051230 	4919 	0.050634
38.87 	0.057626 	4911 	0.057029
38.91 	0.051397 	4903 	0.049844
38.95 	0.044530 	4918 	0.043697
38.99 	0.057525 	4937 	0.056694
39.03 	0.049858 	4934 	0.048790
39.07 	0.050366 	4924 	0.049890
39.11 	0.046441 	4931 	0.045966
39.15 	0.052289 	4915 	0.051197
39.19 	0.049420 	4917 	0.048567
39.23 	0.047716 	4925 	0.046764
39.27 	0.047454 	4910 	0.046599
39.31 	0.047912 	4884 	0.047552
39.35 	0.047416 	4935 	0.046704
39.39 	0.047068 	4929 	0.046355
39.43 	0.044800 	4933 	0.044563
39.47 	0.051595 	4923 	0.050762
39.51 	0.051990 	4924 	0.051138
39.55 	0.046757 	4919 	0.046162
39.59 	0.044992 	4912 	0.044396
39.63 	0.050996 	4922 	0.050043
39.67 	0.051700 	4913 	0.051342
39.71 	0.048008 	4895 	0.047529
39.75 	0.053977 	4928 	0.053383
39.79 	0.045067 	4926 	0.044235
39.83 	0.045602 	4934 	0.045364
39.87 	0.045685 	4925 	0.045091
39.91 	0.049370 	4922 	0.049251
39.95 	0.046592 	4915 	0.045877
39.99 	0.052514 	4932 	0.051683
40.03 	0.049919 	4928 	0.048968
40.07 	0.050173 	4923 	0.049578
40.11 	0.049024 	4916 	0.047832
40.15 	0.048443 	4913 	0.048204
40.19 	0.046460 	4929 	0.045866
40.23 	0.050487 	4932 	0.049873
40.27 	0.044359 	4937 	0.043766
40.31 	0.047985 	4939 	0.046918
40.35 	0.049197 	4919 	0.047768
40.39 	0.045427 	4931 	0.044833
40.43 	0.045713 	4922 	0.045356
40.47 	0.047580 	4918 	0.047223
40.51 	0.050386 	4922 	0.050029
40.55 	0.046047 	4908 	0.045689
40.59 	0.052461 	4937 	0.051512
40.63 	0.048884 	4930 	0.048528
40.67 	0.048459 	4932 	0.047746
40.71 	0.043593 	4932 	0.043355
40.75 	0.048063 	4931 	0.047707
40.79 	0.047319 	4924 	0.046843
40.83 	0.042614 	4928 	0.042019
40.87 	0.051745 	4928 	0.050794
40.91 	0.042860 	4923 	0.042384
40.95 	0.044983 	4913 	0.044625
40.99 	0.047116 	4924 	0.046759
41.03 	0.044241 	4905 	0.043643
41.07 	0.048479 	4930 	0.047271
41.11 	0.046403 	4935 	0.046047
41.15 	0.048168 	4941 	0.047082
41.19 	0.046653 	4930 	0.046297
41.23 	0.046771 	4939 	0.046296
41.27 	0.046238 	4931 	0.045644
41.31 	0.039935 	4933 	0.039223
41.35 	0.050020 	4938 	0.049427
41.39 	0.045814 	4933 	0.045458
41.43 	0.051126 	4929 	0.049819
41.47 	0.047503 	4926 	0.047146
41.51 	0.047166 	4940 	0.046810
41.55 	0.043566 	4935 	0.042973
41.59 	0.047638 	4933 	0.047045
41.63 	0.047590 	4938 	0.047234
41.67 	0.042915 	4940 	0.042441
41.71 	0.048439 	4934 	0.048202
41.75 	0.042199 	4929 	0.041724
41.79 	0.047735 	4944 	0.047261
41.83 	0.045860 	4928 	0.045147
41.87 	0.042958 	4935 	0.042484
41.91 	0.045989 	4936 	0.045514
41.95 	0.043805 	4931 	0.043329
41.99 	0.047910 	4905 	0.047194
42.03 	0.043531 	4939 	0.042701
42.07 	0.047802 	4937 	0.046853
42.11 	0.044692 	4945 	0.044336
42.15 	0.035844 	4938 	0.035370
42.19 	0.040546 	4908 	0.039949
42.23 	0.046198 	4892 	0.046198
42.27 	0.038982 	4874 	0.038381
42.31 	0.041195 	4855 	0.040953
42.35 	0.042786 	4838 	0.042665
42.39 	0.043922 	4804 	0.043414
42.43 	0.040484 	4792 	0.039751
42.47 	0.041973 	4765 	0.041112
42.51 	0.041746 	4743 	0.041252
42.55 	0.045455 	4708 	0.045330
42.59 	0.047790 	4729 	0.047047
42.63 	0.037800 	4709 	0.037551
42.67 	0.040991 	4684 	0.040740
42.71 	0.042033 	4663 	0.041531
42.75 	0.041369 	4617 	0.040608
42.79 	0.044959 	4582 	0.044447
42.83 	0.040564 	4536 	0.040306
42.87 	0.040453 	4499 	0.040193
42.91 	0.040395 	4456 	0.039869
42.95 	0.043705 	4416 	0.043439
42.99 	0.036260 	4385 	0.035859
43.03 	0.042696 	4333 	0.042155
43.07 	0.038641 	4296 	0.037822
43.11 	0.044183 	4255 	0.043748
43.15 	0.039943 	4206 	0.039664
43.19 	0.043157 	4194 	0.042598
43.23 	0.041165 	4154 	0.040601
43.27 	0.041413 	4105 	0.040842
43.31 	0.043393 	4079 	0.042962
43.35 	0.044395 	4032 	0.043959
43.39 	0.044228 	4002 	0.043935
43.43 	0.042929 	3960 	0.042486
43.47 	0.048712 	3921 	0.047791
43.51 	0.043075 	3877 	0.042470
43.55 	0.045209 	2964 	0.044814
43.59 	0.046392 	1746 	0.046392
43.63 	0.046953 	1001 	0.046368
43.67 	0.025896 	502 	0.025896
43.71 	0.020921 	239 	0.020921
43.75 	0.062500 	16 	0.062500