File: Example_Data/25SC_s1_0005.004.dat
#F C:\frames\spec\25SC_s1_0005.004
#C title =s:5 frm:4 25SC_s1
#C wavelength =0.15406

#S 1  fr_average C:\frames\spec\25SC_s1_0005.004 C:\win32app\speccom\mask.axs chi 0 180 0 360 0.02
#C 2 theta =0.000000 to 180 deg
#C   q   =0.000000 to 81.568 nm^-1
#C  chi  =0.000000 to 360 deg
#C collumns:
#C  1 position (2theta or chi in degrees)
#C  2 average intensity (sum of all counts in the region divided with number of pixels)
#C  3 Number of pixels in region)
#C  4 error (sum of sqrt(intensity) for all pixels divided by number)
#N 4
#L TTh  Int  N_pix  Err
32.99 	0.098361 	61 	0.098361
33.03 	0.063264 	1391 	0.062843
33.07 	0.058537 	2050 	0.057108
33.11 	0.061264 	2579 	0.059901
33.15 	0.056352 	2999 	0.055099
33.19 	0.060144 	3342 	0.058888
33.23 	0.062447 	3523 	0.061283
33.27 	0.062259 	3630 	0.061613
33.31 	0.056557 	3660 	0.055757
33.35 	0.062263 	3694 	0.061153
33.39 	0.068383 	3729 	0.066655
33.43 	0.060888 	3761 	0.059642
33.47 	0.056872 	3798 	0.056564
33.51 	0.060288 	3815 	0.059060
33.55 	0.060630 	3843 	0.059715
33.59 	0.054381 	3880 	0.053174
33.63 	0.058178 	3919 	0.057132
33.67 	0.059939 	3954 	0.059050
33.71 	0.059874 	3975 	0.059137
33.75 	0.069017 	3999 	0.068285
33.79 	0.059886 	4041 	0.058726
33.83 	0.058765 	4050 	0.057898
33.87 	0.059353 	4111 	0.058356
33.91 	0.054471 	4149 	0.054330
33.95 	0.060033 	4181 	0.059193
33.99 	0.063095 	4200 	0.061840
34.03 	0.057729 	4244 	0.056900
34.07 	0.057873 	4268 	0.056752
34.11 	0.067411 	4302 	0.066299
34.15 	0.058185 	4331 	0.057644
34.19 	0.057313 	4362 	0.056507
34.23 	0.069884 	4393 	0.068550
34.27 	0.051108 	4422 	0.050711
34.31 	0.059444 	4458 	0.058655
34.35 	0.065120 	4484 	0.064075
34.39 	0.057308 	4502 	0.056007
34.43 	0.059264 	4539 	0.058232
34.47 	0.060540 	4592 	0.059775
34.51 	0.057968 	4606 	0.056823
34.55 	0.060952 	4643 	0.060573
34.59 	0.057968 	4675 	0.057216
34.63 	0.062633 	4710 	0.060767
34.67 	0.051466 	4741 	0.050477
34.71 	0.061057 	4766 	0.059337
34.75 	0.058028 	4808 	0.057175
34.79 	0.058250 	4824 	0.057400
34.83 	0.063965 	4862 	0.063002
34.87 	0.061216 	4868 	0.060494
34.91 	0.061655 	4882 	0.060435
34.95 	0.059714 	4890 	0.058755
34.99 	0.063304 	4897 	0.061749
35.03 	0.060692 	4943 	0.059507
35.07 	0.061943 	4940 	0.060995
35.11 	0.057409 	4947 	0.056580
35.15 	0.060968 	4937 	0.059426
35.19 	0.064549 	4942 	0.063601
35.23 	0.061881 	4945 	0.060815
35.27 	0.060226 	4948 	0.059042
35.31 	0.059801 	4933 	0.059089
35.35 	0.060299 	4942 	0.059233
35.39 	0.055814 	4945 	0.055103
35.43 	0.065072 	4933 	0.064478
35.47 	0.055770 	4931 	0.055156
35.51 	0.057653 	4926 	0.056226
35.55 	0.067341 	4945 	0.065919
35.59 	0.060667 	4945 	0.059700
35.63 	0.060692 	4943 	0.059625
35.67 	0.064346 	4942 	0.063280
35.71 	0.058740 	4937 	0.057791
35.75 	0.066112 	4931 	0.064667
35.79 	0.065693 	4932 	0.064506
35.83 	0.055196 	4946 	0.054012
35.87 	0.065001 	4923 	0.063692
35.91 	0.070022 	4927 	0.068001
35.95 	0.058776 	4917 	0.057823
35.99 	0.068030 	4939 	0.066844
36.03 	0.062513 	4943 	0.061565
36.07 	0.052845 	4939 	0.051896
36.11 	0.064313 	4929 	0.063600
36.15 	0.060539 	4939 	0.059590
36.19 	0.058907 	4940 	0.057464
36.23 	0.061398 	4935 	0.060211
36.27 	0.059289 	4925 	0.058695
36.31 	0.058847 	4928 	0.058134
36.35 	0.068168 	4929 	0.066385
36.39 	0.056696 	4921 	0.056101
36.43 	0.061688 	4928 	0.060500
36.47 	0.068679 	4936 	0.067235
36.51 	0.056355 	4933 	0.055761
36.55 	0.060483 	4927 	0.059651
36.59 	0.054464 	4939 	0.053733
36.63 	0.059420 	4931 	0.058431
36.67 	0.059838 	4930 	0.058768
36.71 	0.065231 	4921 	0.063902
36.75 	0.065939 	4944 	0.064616
36.79 	0.058321 	4921 	0.057607
36.83 	0.060834 	4915 	0.060119
36.87 	0.060275 	4944 	0.059683
36.91 	0.054038 	4941 	0.053563
36.95 	0.059396 	4933 	0.058308
36.99 	0.057548 	4935 	0.056599
37.03 	0.057474 	4924 	0.056522
37.07 	0.056940 	4935 	0.056347
37.11 	0.057548 	4935 	0.056955
37.15 	0.056834 	4909 	0.056238
37.19 	0.060102 	4925 	0.058774
37.23 	0.060797 	4918 	0.059249
37.27 	0.052922 	4894 	0.052323
37.31 	0.060385 	4935 	0.059673
37.35 	0.059538 	4938 	0.059301
37.39 	0.051916 	4931 	0.051322
37.43 	0.056367 	4932 	0.055298
37.47 	0.059444 	4929 	0.058375
37.51 	0.054531 	4933 	0.053304
37.55 	0.057809 	4930 	0.057096
37.59 	0.056358 	4915 	0.056001
37.63 	0.062411 	4919 	0.061339
37.67 	0.058524 	4904 	0.057568
37.71 	0.054372 	4929 	0.053184
37.75 	0.053846 	4940 	0.053135
37.79 	0.056592 	4930 	0.055761
37.83 	0.054675 	4920 	0.053960
37.87 	0.062968 	4939 	0.061664
37.91 	0.056592 	4930 	0.055879
37.95 	0.054054 	4921 	0.053102
37.99 	0.060668 	4912 	0.059475
38.03 	0.055816 	4909 	0.054384
38.07 	0.057853 	4909 	0.057137
38.11 	0.055724 	4935 	0.054637
38.15 	0.059374 	4918 	0.058659
38.19 	0.058621 	4930 	0.057551
38.23 	0.057108 	4938 	0.056515
38.27 	0.066329 	4930 	0.065616
38.31 	0.071037 	4927 	0.069353
38.35 	0.068182 	4928 	0.067350
38.39 	0.069057 	4909 	0.067864
38.43 	0.066314 	4916 	0.064527
38.47 	0.065417 	4907 	0.063984
38.51 	0.066099 	4932 	0.064417
38.55 	0.063817 	4936 	0.062867
38.59 	0.062754 	4924 	0.061921
38.63 	0.060520 	4924 	0.058716
38.67 	0.058740 	4937 	0.058028
38.71 	0.057677 	4924 	0.056606
38.75 	0.054597 	4927 	0.054122
38.79 	0.054114 	4934 	0.053165
38.83 	0.061801 	4919 	0.060610
38.87 	0.052535 	4911 	0.051223
38.91 	0.051805 	4903 	0.050849
38.95 	0.056934 	4918 	0.055465
38.99 	0.051853 	4937 	0.051141
39.03 	0.058168 	4934 	0.057099
39.07 	0.057067 	4924 	0.055759
39.11 	0.058812 	4931 	0.057980
39.15 	0.054730 	4915 	0.054254
39.19 	0.054708 	4917 	0.053755
39.23 	0.054619 	4925 	0.053668
39.27 	0.051527 	4910 	0.050792
39.31 	0.050573 	4884 	0.048994
39.35 	0.056535 	4935 	0.054992
39.39 	0.049300 	4929 	0.048211
39.43 	0.060815 	4933 	0.059865
39.47 	0.061345 	4923 	0.059897
39.51 	0.056255 	4924 	0.055046
39.55 	0.054889 	4919 	0.053579
39.59 	0.059853 	4912 	0.058899
39.63 	0.057903 	4922 	0.056594
39.67 	0.055770 	4913 	0.054817
39.71 	0.051277 	4895 	0.050180
39.75 	0.059862 	4928 	0.058436
39.79 	0.066991 	4926 	0.066397
39.83 	0.060397 	4934 	0.059329
39.87 	0.060305 	4925 	0.059234
39.91 	0.055872 	4922 	0.054681
39.95 	0.059003 	4915 	0.057792
39.99 	0.059408 	4932 	0.058339
40.03 	0.059862 	4928 	0.059149
40.07 	0.050985 	4923 	0.050271
40.11 	0.057567 	4916 	0.056475
40.15 	0.053531 	4913 	0.052816
40.19 	0.051938 	4929 	0.051106
40.23 	0.051095 	4932 	0.050620
40.27 	0.052258 	4937 	0.051902
40.31 	0.054060 	4939 	0.053585
40.35 	0.052450 	4919 	0.051854
40.39 	0.052119 	4931 	0.051288
40.43 	0.049573 	4922 	0.048859
40.47 	0.052664 	4918 	0.051473
40.51 	0.052011 	4922 	0.051416
40.55 	0.050733 	4908 	0.050495
40.59 	0.050233 	4937 	0.049402
40.63 	0.050101 	4930 	0.049745
40.67 	0.055353 	4932 	0.054640
40.71 	0.050689 	4932 	0.050096
40.75 	0.055161 	4931 	0.054092
40.79 	0.045491 	4924 	0.044382
40.83 	0.058847 	4928 	0.058253
40.87 	0.053774 	4928 	0.052348
40.91 	0.056673 	4923 	0.055582
40.95 	0.055770 	4913 	0.054817
40.99 	0.050366 	4924 	0.049533
41.03 	0.055454 	4905 	0.054240
41.07 	0.052130 	4930 	0.051655
41.11 	0.056535 	4935 	0.055111
41.15 	0.055657 	4941 	0.054234
41.19 	0.053955 	4930 	0.052985
41.23 	0.050618 	4939 	0.049669
41.27 	0.053944 	4931 	0.053232
41.31 	0.054125 	4933 	0.053413
41.35 	0.048805 	4938 	0.048449
41.39 	0.052504 	4933 	0.051554
41.43 	0.047271 	4929 	0.046796
41.47 	0.049127 	4926 	0.048532
41.51 	0.056883 	4940 	0.055183
41.55 	0.049848 	4935 	0.049611
41.59 	0.049868 	4933 	0.049512
41.63 	0.047995 	4938 	0.047264
41.67 	0.046559 	4940 	0.046084
41.71 	0.049858 	4934 	0.049265
41.75 	0.056604 	4929 	0.055415
41.79 	0.051173 	4944 	0.050581
41.83 	0.049107 	4928 	0.048493
41.87 	0.047619 	4935 	0.046907
41.91 	0.051661 	4936 	0.051187
41.95 	0.053539 	4931 	0.052945
41.99 	0.051580 	4905 	0.050863
42.03 	0.048593 	4939 	0.047506
42.07 	0.050638 	4937 	0.050282
42.11 	0.053387 	4945 	0.052321
42.15 	0.048805 	4938 	0.048449
42.19 	0.047677 	4908 	0.047300
42.23 	0.042723 	4892 	0.042124
42.27 	0.046163 	4874 	0.045923
42.31 	0.045726 	4855 	0.045123
42.35 	0.043200 	4838 	0.042958
42.39 	0.055371 	4804 	0.054375
42.43 	0.048623 	4792 	0.048378
42.47 	0.044911 	4765 	0.044296
42.51 	0.049968 	4743 	0.048857
42.55 	0.051189 	4708 	0.050692
42.59 	0.049482 	4729 	0.048718
42.63 	0.046719 	4709 	0.046221
42.67 	0.048036 	4684 	0.047035
42.71 	0.044178 	4663 	0.043675
42.75 	0.048950 	4617 	0.048442
42.79 	0.050851 	4582 	0.050340
42.83 	0.050485 	4536 	0.049581
42.87 	0.051789 	4499 	0.051008
42.91 	0.047127 	4456 	0.046996
42.95 	0.049139 	4416 	0.048476
42.99 	0.046294 	4385 	0.045893
43.03 	0.043388 	4333 	0.042982
43.07 	0.054004 	4296 	0.053322
43.11 	0.047709 	4255 	0.047433
43.15 	0.054922 	4206 	0.054086
43.19 	0.047449 	4194 	0.046413
43.23 	0.051757 	4154 	0.051475
43.27 	0.042631 	4105 	0.042203
43.31 	0.047561 	4079 	0.046843
43.35 	0.052331 	4032 	0.051895
43.39 	0.048976 	4002 	0.048683
43.43 	0.047475 	3960 	0.046735
43.47 	0.052028 	3921 	0.050982
43.51 	0.045654 	3877 	0.044747
43.55 	0.051957 	2964 	0.051364
43.59 	0.042383 	1746 	0.041712
43.63 	0.048951 	1001 	0.048366
43.67 	0.031873 	502 	0.031873
43.71 	0.054393 	239 	0.054393
43.75 	0.125000 	16 	0.125000