File: Example_Data/25SC_s1_0052.000.dat
#F C:\frames\spec\25SC_s1_0052.000
#C title =s:52 frm:0 25SC_s1
#C wavelength =0.15406

#S 1  fr_average C:\frames\spec\25SC_s1_0052.000 C:\win32app\speccom\mask.axs chi 0 180 0 360 0.02
#C 2 theta =0.000000 to 180 deg
#C   q   =0.000000 to 81.568 nm^-1
#C  chi  =0.000000 to 360 deg
#C collumns:
#C  1 position (2theta or chi in degrees)
#C  2 average intensity (sum of all counts in the region divided with number of pixels)
#C  3 Number of pixels in region)
#C  4 error (sum of sqrt(intensity) for all pixels divided by number)
#N 4
#L TTh  Int  N_pix  Err
32.99 	0.081967 	61 	0.081967
33.03 	0.066858 	1391 	0.066437
33.07 	0.063415 	2050 	0.063129
33.11 	0.066693 	2579 	0.065519
33.15 	0.064021 	2999 	0.063045
33.19 	0.072711 	3342 	0.071835
33.23 	0.064718 	3523 	0.063554
33.27 	0.070523 	3630 	0.069394
33.31 	0.062295 	3660 	0.061335
33.35 	0.067407 	3694 	0.066614
33.39 	0.069724 	3729 	0.068624
33.43 	0.066206 	3761 	0.064025
33.47 	0.066877 	3798 	0.064410
33.51 	0.061861 	3815 	0.060761
33.55 	0.073901 	3843 	0.072071
33.59 	0.067268 	3880 	0.066362
33.63 	0.066599 	3919 	0.065552
33.67 	0.061204 	3954 	0.059722
33.71 	0.070440 	3975 	0.069114
33.75 	0.061265 	3999 	0.060240
33.79 	0.068052 	4041 	0.066748
33.83 	0.066667 	4050 	0.065943
33.87 	0.072732 	4111 	0.071734
33.91 	0.056158 	4149 	0.055029
33.95 	0.067926 	4181 	0.066105
33.99 	0.060000 	4200 	0.059442
34.03 	0.068332 	4244 	0.067090
34.07 	0.069353 	4268 	0.068233
34.11 	0.057880 	4302 	0.056360
34.15 	0.062803 	4331 	0.061992
34.19 	0.066483 	4362 	0.065678
34.23 	0.058730 	4393 	0.057663
34.27 	0.072365 	4422 	0.070853
34.31 	0.057649 	4458 	0.056467
34.35 	0.070250 	4484 	0.068922
34.39 	0.060195 	4502 	0.059024
34.43 	0.059044 	4539 	0.058140
34.47 	0.066202 	4592 	0.064799
34.51 	0.063830 	4606 	0.062304
34.55 	0.062029 	4643 	0.060368
34.59 	0.057754 	4675 	0.057128
34.63 	0.054989 	4710 	0.054119
34.67 	0.061801 	4741 	0.060298
34.71 	0.069031 	4766 	0.067433
34.75 	0.063852 	4808 	0.062390
34.79 	0.063847 	4824 	0.063119
34.83 	0.060675 	4862 	0.059952
34.87 	0.062654 	4868 	0.061090
34.91 	0.065137 	4882 	0.064057
34.95 	0.064622 	4890 	0.064262
34.99 	0.066367 	4897 	0.065530
35.03 	0.063120 	4943 	0.062053
35.07 	0.060121 	4940 	0.058461
35.11 	0.062462 	4947 	0.061614
35.15 	0.064006 	4937 	0.062345
35.19 	0.056455 	4942 	0.055744
35.23 	0.071587 	4945 	0.069692
35.27 	0.060631 	4948 	0.059920
35.31 	0.059193 	4933 	0.058461
35.35 	0.060097 	4942 	0.058793
35.39 	0.058038 	4945 	0.057209
35.43 	0.058788 	4933 	0.058194
35.47 	0.064896 	4931 	0.062876
35.51 	0.062119 	4926 	0.060930
35.55 	0.061274 	4945 	0.060682
35.59 	0.066734 	4945 	0.065549
35.63 	0.056241 	4943 	0.055412
35.67 	0.059895 	4942 	0.059302
35.71 	0.061981 	4937 	0.061032
35.75 	0.068952 	4931 	0.067526
35.79 	0.058597 	4932 	0.057409
35.83 	0.062879 	4946 	0.061932
35.87 	0.064189 	4923 	0.063098
35.91 	0.058250 	4927 	0.057180
35.95 	0.063657 	4917 	0.062584
35.99 	0.059729 	4939 	0.058780
36.03 	0.067975 	4943 	0.067264
36.07 	0.065600 	4939 	0.064414
36.11 	0.062690 	4929 	0.061621
36.15 	0.065803 	4939 	0.064261
36.19 	0.064372 	4940 	0.062831
36.23 	0.059169 	4935 	0.058338
36.27 	0.060914 	4925 	0.059943
36.31 	0.062703 	4928 	0.061395
36.35 	0.061879 	4929 	0.060809
36.39 	0.064215 	4921 	0.062905
36.43 	0.063718 	4928 	0.062767
36.47 	0.064830 	4936 	0.063999
36.51 	0.069734 	4933 	0.068309
36.55 	0.069616 	4927 	0.068309
36.59 	0.060134 	4939 	0.059185
36.63 	0.064287 	4931 	0.063099
36.67 	0.062272 	4930 	0.061678
36.71 	0.063402 	4921 	0.062449
36.75 	0.064725 	4944 	0.063639
36.79 	0.066653 	4921 	0.064987
36.83 	0.063886 	4915 	0.062675
36.87 	0.063714 	4944 	0.062884
36.91 	0.071443 	4941 	0.070495
36.95 	0.062031 	4933 	0.060587
36.99 	0.066059 	4935 	0.063685
37.03 	0.071893 	4924 	0.070346
37.07 	0.063830 	4935 	0.062623
37.11 	0.068288 	4935 	0.067219
37.15 	0.055408 	4909 	0.053976
37.19 	0.073909 	4925 	0.072838
37.23 	0.063034 	4918 	0.061704
37.27 	0.065386 	4894 	0.063930
37.31 	0.057751 	4935 	0.057276
37.35 	0.062778 	4938 	0.061592
37.39 	0.064287 	4931 	0.062862
37.43 	0.058597 	4932 	0.057746
37.47 	0.062284 	4929 	0.060739
37.51 	0.064667 	4933 	0.062767
37.55 	0.059432 	4930 	0.058125
37.59 	0.061851 	4915 	0.060660
37.63 	0.055702 	4919 	0.054988
37.67 	0.060563 	4904 	0.060085
37.71 	0.063502 	4929 	0.061957
37.75 	0.058502 	4940 	0.057079
37.79 	0.058621 	4930 	0.057789
37.83 	0.056098 	4920 	0.055621
37.87 	0.067827 	4939 	0.066879
37.91 	0.063692 	4930 	0.062147
37.95 	0.058728 	4921 	0.057657
37.99 	0.057410 	4912 	0.056218
38.03 	0.063353 	4909 	0.062160
38.07 	0.059483 	4909 	0.058886
38.11 	0.068490 	4935 	0.067303
38.15 	0.068727 	4918 	0.067536
38.19 	0.071805 	4930 	0.070617
38.23 	0.063589 	4938 	0.062877
38.27 	0.070588 	4930 	0.069638
38.31 	0.081794 	4927 	0.080249
38.35 	0.090097 	4928 	0.087482
38.39 	0.085557 	4909 	0.083032
38.43 	0.092352 	4916 	0.090525
38.47 	0.079071 	4907 	0.077380
38.51 	0.081914 	4932 	0.080350
38.55 	0.085089 	4936 	0.082459
38.59 	0.076158 	4924 	0.074730
38.63 	0.083063 	4924 	0.082230
38.67 	0.070893 	4937 	0.069588
38.71 	0.066409 	4924 	0.064804
38.75 	0.060077 	4927 	0.059106
38.79 	0.064653 	4934 	0.063822
38.83 	0.052856 	4919 	0.052023
38.87 	0.058237 	4911 	0.057163
38.91 	0.056088 	4903 	0.054893
38.95 	0.054697 	4918 	0.053625
38.99 	0.050233 	4937 	0.049521
39.03 	0.055938 	4934 	0.055345
39.07 	0.051381 	4924 	0.050429
39.11 	0.051714 	4931 	0.051001
39.15 	0.049847 	4915 	0.049013
39.19 	0.049420 	4917 	0.048706
39.23 	0.052386 	4925 	0.051434
39.27 	0.043992 	4910 	0.043037
39.31 	0.047502 	4884 	0.047262
39.35 	0.046403 	4935 	0.045691
39.39 	0.051329 	4929 	0.050259
39.43 	0.054125 	4933 	0.053532
39.47 	0.047329 	4923 	0.046377
39.51 	0.054427 	4924 	0.053714
39.55 	0.043098 	4919 	0.042384
39.59 	0.049674 	4912 	0.048959
39.63 	0.050183 	4922 	0.048993
39.67 	0.045593 	4913 	0.044997
39.71 	0.051073 	4895 	0.050335
39.75 	0.046063 	4928 	0.045469
39.79 	0.049127 	4926 	0.047661
39.83 	0.048439 	4934 	0.048064
39.87 	0.047513 	4925 	0.046799
39.91 	0.049777 	4922 	0.049538
39.95 	0.047609 	4915 	0.047133
39.99 	0.050892 	4932 	0.050417
40.03 	0.048295 	4928 	0.047820
40.07 	0.048548 	4923 	0.047933
40.11 	0.048007 	4916 	0.047649
40.15 	0.049257 	4913 	0.048780
40.19 	0.039359 	4929 	0.039359
40.23 	0.042579 	4932 	0.041629
40.27 	0.043346 	4937 	0.042872
40.31 	0.044746 	4939 	0.044271
40.35 	0.052246 	4919 	0.051651
40.39 	0.048874 	4931 	0.048280
40.43 	0.048761 	4922 	0.048404
40.47 	0.049410 	4918 	0.048815
40.51 	0.048964 	4922 	0.048488
40.55 	0.045232 	4908 	0.043919
40.59 	0.040510 	4937 	0.040016
40.63 	0.049290 	4930 	0.048458
40.67 	0.047242 	4932 	0.046510
40.71 	0.047445 	4932 	0.046376
40.75 	0.049280 	4931 	0.048211
40.79 	0.050772 	4924 	0.049701
40.83 	0.050122 	4928 	0.049052
40.87 	0.044440 	4928 	0.043964
40.91 	0.042454 	4923 	0.041859
40.95 	0.049054 	4913 	0.048577
40.99 	0.043461 	4924 	0.043104
41.03 	0.045464 	4905 	0.044489
41.07 	0.048682 	4930 	0.048325
41.11 	0.051266 	4935 	0.050910
41.15 	0.048776 	4941 	0.048064
41.19 	0.045030 	4930 	0.044555
41.23 	0.045961 	4939 	0.045486
41.27 	0.048266 	4931 	0.047534
41.31 	0.042773 	4933 	0.042130
41.35 	0.044147 	4938 	0.043792
41.39 	0.041760 	4933 	0.040928
41.43 	0.045040 	4929 	0.043970
41.47 	0.039789 	4926 	0.039670
41.51 	0.043927 	4940 	0.043334
41.55 	0.042351 	4935 	0.042351
41.59 	0.048855 	4933 	0.048261
41.63 	0.039692 	4938 	0.039692
41.67 	0.038664 	4940 	0.038427
41.71 	0.045805 	4934 	0.045092
41.75 	0.048691 	4929 	0.047978
41.79 	0.042678 	4944 	0.042678
41.83 	0.041396 	4928 	0.040921
41.87 	0.039514 	4935 	0.038920
41.91 	0.043355 	4936 	0.042643
41.95 	0.045630 	4931 	0.044897
41.99 	0.045056 	4905 	0.044578
42.03 	0.047985 	4939 	0.047392
42.07 	0.046182 	4937 	0.045826
42.11 	0.046512 	4945 	0.045919
42.15 	0.043337 	4938 	0.042981
42.19 	0.042584 	4908 	0.041987
42.23 	0.040474 	4892 	0.039856
42.27 	0.039598 	4874 	0.038757
42.31 	0.044078 	4855 	0.043475
42.35 	0.041133 	4838 	0.040648
42.39 	0.041424 	4804 	0.041038
42.43 	0.044449 	4792 	0.043960
42.47 	0.044701 	4765 	0.043349
42.51 	0.038162 	4743 	0.037914
42.55 	0.036321 	4708 	0.035575
42.59 	0.045676 	4729 	0.045180
42.63 	0.037800 	4709 	0.037302
42.67 	0.040350 	4684 	0.039579
42.71 	0.042676 	4663 	0.041797
42.75 	0.039636 	4617 	0.039382
42.79 	0.044522 	4582 	0.043627
42.83 	0.038801 	4536 	0.038542
42.87 	0.041120 	4499 	0.040599
42.91 	0.039946 	4456 	0.039815
42.95 	0.038949 	4416 	0.038551
42.99 	0.040593 	4385 	0.040192
43.03 	0.042234 	4333 	0.041828
43.07 	0.035847 	4296 	0.035575
43.11 	0.043713 	4255 	0.043025
43.15 	0.041132 	4206 	0.040853
43.19 	0.038388 	4194 	0.037969
43.23 	0.041647 	4154 	0.040801
43.27 	0.038490 	4105 	0.038204
43.31 	0.038245 	4079 	0.037527
43.35 	0.043155 	4032 	0.042695
43.39 	0.045227 	4002 	0.044788
43.43 	0.043687 	3960 	0.043391
43.47 	0.038256 	3921 	0.037658
43.51 	0.039721 	3877 	0.038941
43.55 	0.042848 	2964 	0.042452
43.59 	0.039519 	1746 	0.039183
43.63 	0.041958 	1001 	0.041373
43.67 	0.051793 	502 	0.051793
43.71 	0.020921 	239 	0.020921
43.75 	0.000000 	16 	0.000000