File: Example_Data/25SC_s1_0002.000.dat
#F C:\frames\spec\25SC_s1_0002.000
#C title =s:2 frm:0 25SC_s1
#C wavelength =0.15406

#S 1  fr_average C:\frames\spec\25SC_s1_0002.000 C:\win32app\speccom\mask.axs chi 0 180 0 360 0.02
#C 2 theta =0.000000 to 180 deg
#C   q   =0.000000 to 81.568 nm^-1
#C  chi  =0.000000 to 360 deg
#C collumns:
#C  1 position (2theta or chi in degrees)
#C  2 average intensity (sum of all counts in the region divided with number of pixels)
#C  3 Number of pixels in region)
#C  4 error (sum of sqrt(intensity) for all pixels divided by number)
#N 4
#L TTh  Int  N_pix  Err
32.99 	0.098361 	61 	0.098361
33.03 	0.076204 	1391 	0.074941
33.07 	0.069268 	2050 	0.067554
33.11 	0.072121 	2579 	0.069850
33.15 	0.070023 	2999 	0.068851
33.19 	0.078695 	3342 	0.078345
33.23 	0.070395 	3523 	0.068704
33.27 	0.076860 	3630 	0.075246
33.31 	0.068306 	3660 	0.067826
33.35 	0.070114 	3694 	0.068687
33.39 	0.065701 	3729 	0.064079
33.43 	0.069131 	3761 	0.067885
33.47 	0.075566 	3798 	0.073870
33.51 	0.074967 	3815 	0.072332
33.55 	0.074161 	3843 	0.072637
33.59 	0.078093 	3880 	0.075677
33.63 	0.068385 	3919 	0.066890
33.67 	0.075620 	3954 	0.074434
33.71 	0.073711 	3975 	0.072090
33.75 	0.073268 	3999 	0.071486
33.79 	0.069537 	4041 	0.067943
33.83 	0.064198 	4050 	0.063185
33.87 	0.079543 	4111 	0.077548
33.91 	0.072307 	4149 	0.070471
33.95 	0.070796 	4181 	0.069676
33.99 	0.074524 	4200 	0.072525
34.03 	0.068332 	4244 	0.066929
34.07 	0.072634 	4268 	0.070849
34.11 	0.069270 	4302 	0.067228
34.15 	0.071808 	4331 	0.070568
34.19 	0.073819 	4362 	0.072432
34.23 	0.077851 	4393 	0.075584
34.27 	0.071687 	4422 	0.071025
34.31 	0.070884 	4458 	0.069307
34.35 	0.072926 	4484 	0.071358
34.39 	0.070413 	4502 	0.068310
34.43 	0.071822 	4539 	0.070402
34.47 	0.069686 	4592 	0.068156
34.51 	0.070343 	4606 	0.068817
34.55 	0.063967 	4643 	0.062579
34.59 	0.081070 	4675 	0.079315
34.63 	0.068365 	4710 	0.067370
34.67 	0.070660 	4741 	0.069425
34.71 	0.069660 	4766 	0.067816
34.75 	0.064060 	4808 	0.062842
34.79 	0.069030 	4824 	0.067067
34.83 	0.071370 	4862 	0.070045
34.87 	0.072514 	4868 	0.071311
34.91 	0.073945 	4882 	0.071526
34.95 	0.078528 	4890 	0.076731
34.99 	0.073310 	4897 	0.071516
35.03 	0.077079 	4943 	0.075637
35.07 	0.068421 	4940 	0.066880
35.11 	0.066303 	4947 	0.065592
35.15 	0.068463 	4937 	0.067494
35.19 	0.078511 	4942 	0.077661
35.23 	0.076643 	4945 	0.074985
35.27 	0.075384 	4948 	0.073470
35.31 	0.076221 	4933 	0.075153
35.35 	0.067786 	4942 	0.066344
35.39 	0.072396 	4945 	0.070718
35.43 	0.074194 	4933 	0.072769
35.47 	0.068140 	4931 	0.067428
35.51 	0.068413 	4926 	0.067104
35.55 	0.075025 	4945 	0.073821
35.59 	0.076643 	4945 	0.075676
35.63 	0.070200 	4943 	0.069252
35.67 	0.071024 	4942 	0.070313
35.71 	0.071096 	4937 	0.068485
35.75 	0.070168 	4931 	0.069218
35.79 	0.069140 	4932 	0.068428
35.83 	0.079256 	4946 	0.077460
35.87 	0.076376 	4923 	0.074115
35.91 	0.073270 	4927 	0.070872
35.95 	0.075453 	4917 	0.073785
35.99 	0.073294 	4939 	0.071614
36.03 	0.070807 	4943 	0.069622
36.07 	0.074307 	4939 	0.072172
36.11 	0.068574 	4929 	0.067385
36.15 	0.070055 	4939 	0.068612
36.19 	0.078340 	4940 	0.077036
36.23 	0.072340 	4935 	0.071510
36.27 	0.075127 	4925 	0.073700
36.31 	0.073255 	4928 	0.071452
36.35 	0.080747 	4929 	0.079202
36.39 	0.073969 	4921 	0.072164
36.43 	0.071023 	4928 	0.069240
36.47 	0.074352 	4936 	0.072671
36.51 	0.064058 	4933 	0.063346
36.55 	0.070225 	4927 	0.067966
36.59 	0.076736 	4939 	0.074245
36.63 	0.076252 	4931 	0.075421
36.67 	0.083570 	4930 	0.082025
36.71 	0.075188 	4921 	0.073998
36.75 	0.068972 	4944 	0.067294
36.79 	0.073969 	4921 	0.073612
36.83 	0.076704 	4915 	0.074797
36.87 	0.073625 	4944 	0.072084
36.91 	0.081765 	4941 	0.079749
36.95 	0.079668 	4933 	0.078005
36.99 	0.077204 	4935 	0.075661
37.03 	0.076564 	4924 	0.075017
37.07 	0.073759 	4935 	0.072097
37.11 	0.080851 	4935 	0.078952
37.15 	0.071501 	4909 	0.069930
37.19 	0.069239 	4925 	0.067930
37.23 	0.070557 	4918 	0.069604
37.27 	0.073968 	4894 	0.072053
37.31 	0.070517 	4935 	0.068618
37.35 	0.071081 	4938 	0.070350
37.39 	0.071385 	4931 	0.070078
37.43 	0.070762 	4932 	0.069693
37.47 	0.071008 	4929 	0.070058
37.51 	0.069532 	4933 	0.068463
37.55 	0.076268 	4930 	0.075198
37.59 	0.068566 	4915 	0.067851
37.63 	0.058752 	4919 	0.057799
37.67 	0.067292 	4904 	0.066456
37.71 	0.063502 	4929 	0.062432
37.75 	0.072267 	4940 	0.071180
37.79 	0.067951 	4930 	0.067001
37.83 	0.069309 	4920 	0.067880
37.87 	0.067423 	4939 	0.065980
37.91 	0.066126 	4930 	0.065056
37.95 	0.065231 	4921 	0.064754
37.99 	0.066164 	4912 	0.064853
38.03 	0.064168 	4909 	0.062975
38.07 	0.073335 	4909 	0.072002
38.11 	0.071935 	4935 	0.070392
38.15 	0.071980 	4918 	0.069698
38.19 	0.075862 	4930 	0.074555
38.23 	0.087080 	4938 	0.085656
38.27 	0.078296 	4930 	0.076989
38.31 	0.077532 	4927 	0.076105
38.35 	0.090097 	4928 	0.087205
38.39 	0.096150 	4909 	0.093505
38.43 	0.097437 	4916 	0.093743
38.47 	0.094355 	4907 	0.092306
38.51 	0.096918 	4932 	0.094048
38.55 	0.101702 	4936 	0.098558
38.59 	0.091998 	4924 	0.089857
38.63 	0.090171 	4924 	0.087791
38.67 	0.091756 	4937 	0.089601
38.71 	0.087937 	4924 	0.085280
38.75 	0.078750 	4927 	0.076847
38.79 	0.063235 	4934 	0.062166
38.83 	0.066274 	4919 	0.065659
38.87 	0.073101 	4911 	0.070835
38.91 	0.064246 	4903 	0.062932
38.95 	0.061000 	4918 	0.059551
38.99 	0.068058 	4937 	0.066396
39.03 	0.059181 	4934 	0.058588
39.07 	0.060723 	4924 	0.059890
39.11 	0.055567 	4931 	0.054498
39.15 	0.059410 	4915 	0.058576
39.19 	0.058979 	4917 	0.057430
39.23 	0.054822 	4925 	0.053752
39.27 	0.058656 	4910 	0.057940
39.31 	0.054668 	4884 	0.053589
39.35 	0.055319 	4935 	0.054370
39.39 	0.059241 	4929 	0.058409
39.43 	0.058990 	4933 	0.058040
39.47 	0.057079 	4923 	0.056960
39.51 	0.063363 	4924 	0.062035
39.55 	0.052246 	4919 	0.051294
39.59 	0.053339 	4912 	0.052504
39.63 	0.058106 	4922 	0.057511
39.67 	0.058009 	4913 	0.057294
39.71 	0.054750 	4895 	0.053673
39.75 	0.053166 	4928 	0.052096
39.79 	0.054811 	4926 	0.054098
39.83 	0.054520 	4934 	0.053332
39.87 	0.055838 	4925 	0.054529
39.91 	0.055059 	4922 	0.053730
39.95 	0.053306 	4915 	0.052114
39.99 	0.055758 	4932 	0.054689
40.03 	0.059253 	4928 	0.058302
40.07 	0.057485 	4923 	0.056295
40.11 	0.048820 	4916 	0.047867
40.15 	0.052310 	4913 	0.052072
40.19 	0.057415 	4929 	0.056821
40.23 	0.059408 	4932 	0.058458
40.27 	0.052866 	4937 	0.052510
40.31 	0.053250 	4939 	0.052419
40.35 	0.052246 	4919 	0.051651
40.39 	0.055770 	4931 	0.054700
40.43 	0.054449 	4922 	0.053735
40.47 	0.056730 	4918 	0.055777
40.51 	0.044494 	4922 	0.043661
40.55 	0.053790 	4908 	0.053312
40.59 	0.050030 	4937 	0.049318
40.63 	0.052535 	4930 	0.052060
40.67 	0.050487 	4932 	0.049655
40.71 	0.053325 	4932 	0.052494
40.75 	0.047252 	4931 	0.046421
40.79 	0.051990 	4924 	0.050920
40.83 	0.055601 	4928 	0.054650
40.87 	0.049513 	4928 	0.049156
40.91 	0.056673 	4923 	0.055483
40.95 	0.053124 	4913 	0.052528
40.99 	0.053412 	4924 	0.052817
41.03 	0.054842 	4905 	0.053767
41.07 	0.056795 	4930 	0.056201
41.11 	0.056535 	4935 	0.055823
41.15 	0.049585 	4941 	0.048755
41.19 	0.053753 	4930 	0.052307
41.23 	0.054262 	4939 	0.053056
41.27 	0.049686 	4931 	0.048973
41.31 	0.050071 	4933 	0.049952
41.35 	0.054678 	4938 	0.053610
41.39 	0.050071 	4933 	0.049240
41.43 	0.050923 	4929 	0.050804
41.47 	0.053390 	4926 	0.052439
41.51 	0.051215 	4940 	0.050622
41.55 	0.054711 	4935 	0.053267
41.59 	0.052909 	4933 	0.051721
41.63 	0.050223 	4938 	0.049511
41.67 	0.053644 	4940 	0.052932
41.71 	0.049858 	4934 	0.049027
41.75 	0.048691 	4929 	0.048216
41.79 	0.055421 	4944 	0.054236
41.83 	0.052557 	4928 	0.051844
41.87 	0.048632 	4935 	0.047920
41.91 	0.049028 	4936 	0.048315
41.95 	0.048874 	4931 	0.047924
41.99 	0.050968 	4905 	0.050252
42.03 	0.056489 	4939 	0.055659
42.07 	0.043751 	4937 	0.042921
42.11 	0.045298 	4945 	0.044706
42.15 	0.047995 	4938 	0.047165
42.19 	0.053178 	4908 	0.052224
42.23 	0.049264 	4892 	0.048665
42.27 	0.047600 	4874 	0.046999
42.31 	0.046550 	4855 	0.046067
42.35 	0.052914 	4838 	0.051946
42.39 	0.046211 	4804 	0.044972
42.43 	0.050918 	4792 	0.050307
42.47 	0.052886 	4765 	0.050898
42.51 	0.044276 	4743 	0.043782
42.55 	0.044817 	4708 	0.044568
42.59 	0.047579 	4729 	0.046836
42.63 	0.052877 	4709 	0.051758
42.67 	0.043766 	4684 	0.043141
42.71 	0.045250 	4663 	0.044370
42.75 	0.047433 	4617 	0.046672
42.79 	0.046923 	4582 	0.046156
42.83 	0.046076 	4536 	0.045559
42.87 	0.044677 	4499 	0.043614
42.91 	0.051840 	4456 	0.051314
42.95 	0.056386 	4416 	0.055590
42.99 	0.043101 	4385 	0.042567
43.03 	0.047773 	4333 	0.046804
43.07 	0.042365 	4296 	0.042092
43.11 	0.047709 	4255 	0.047020
43.15 	0.043747 	4206 	0.043329
43.19 	0.049833 	4194 	0.048995
43.23 	0.048387 	4154 	0.047682
43.27 	0.050914 	4105 	0.049915
43.31 	0.047070 	4079 	0.046209
43.35 	0.044395 	4032 	0.043233
43.39 	0.050475 	4002 	0.049450
43.43 	0.043182 	3960 	0.042738
43.47 	0.043356 	3921 	0.042460
43.51 	0.042559 	3877 	0.042256
43.55 	0.051282 	2964 	0.050294
43.59 	0.049828 	1746 	0.047815
43.63 	0.048951 	1001 	0.048366
43.67 	0.045817 	502 	0.043483
43.71 	0.029289 	239 	0.029289
43.75 	0.000000 	16 	0.000000