File: Example_Data/25SC_s1_0049.003.dat
#F C:\frames\spec\25SC_s1_0049.003
#C title =s:49 frm:3 25SC_s1
#C wavelength =0.15406

#S 1  fr_average C:\frames\spec\25SC_s1_0049.003 C:\win32app\speccom\mask.axs chi 0 180 0 360 0.02
#C 2 theta =0.000000 to 180 deg
#C   q   =0.000000 to 81.568 nm^-1
#C  chi  =0.000000 to 360 deg
#C collumns:
#C  1 position (2theta or chi in degrees)
#C  2 average intensity (sum of all counts in the region divided with number of pixels)
#C  3 Number of pixels in region)
#C  4 error (sum of sqrt(intensity) for all pixels divided by number)
#N 4
#L TTh  Int  N_pix  Err
32.99 	0.081967 	61 	0.072364
33.03 	0.056794 	1391 	0.055951
33.07 	0.048780 	2050 	0.047637
33.11 	0.057774 	2579 	0.055693
33.15 	0.062354 	2999 	0.061573
33.19 	0.060144 	3342 	0.058566
33.23 	0.054499 	3523 	0.053668
33.27 	0.057025 	3630 	0.056379
33.31 	0.059563 	3660 	0.058122
33.35 	0.057661 	3694 	0.056551
33.39 	0.052561 	3729 	0.052247
33.43 	0.067269 	3761 	0.065868
33.47 	0.058452 	3798 	0.057218
33.51 	0.059764 	3815 	0.058536
33.55 	0.066354 	3843 	0.065287
33.59 	0.067526 	3880 	0.066016
33.63 	0.055626 	3919 	0.055178
33.67 	0.057663 	3954 	0.056182
33.71 	0.058113 	3975 	0.057376
33.75 	0.062016 	3999 	0.060844
33.79 	0.052710 	4041 	0.051405
33.83 	0.058765 	4050 	0.057174
33.87 	0.064461 	4111 	0.063464
33.91 	0.065799 	4149 	0.065093
33.95 	0.063382 	4181 	0.062098
33.99 	0.058810 	4200 	0.058112
34.03 	0.059614 	4244 	0.058095
34.07 	0.056701 	4268 	0.055466
34.11 	0.068805 	4302 	0.067444
34.15 	0.059109 	4331 	0.058162
34.19 	0.053416 	4362 	0.053013
34.23 	0.062827 	4393 	0.062027
34.27 	0.056309 	4422 	0.054985
34.31 	0.052041 	4458 	0.051778
34.35 	0.055531 	4484 	0.054856
34.39 	0.061084 	4502 	0.060173
34.43 	0.058163 	4539 	0.057388
34.47 	0.062500 	4592 	0.061224
34.51 	0.060139 	4606 	0.059249
34.55 	0.057506 	4643 	0.056749
34.59 	0.063957 	4675 	0.062934
34.63 	0.061783 	4710 	0.059669
34.67 	0.057583 	4741 	0.056471
34.71 	0.066303 	4766 	0.064951
34.75 	0.060316 	4808 	0.058834
34.79 	0.053483 	4824 	0.052390
34.83 	0.059441 	4862 	0.058838
34.87 	0.060600 	4868 	0.059156
34.91 	0.058378 	4882 	0.057178
34.95 	0.064826 	4890 	0.064347
34.99 	0.055340 	4897 	0.054483
35.03 	0.060287 	4943 	0.059458
35.07 	0.062146 	4940 	0.061434
35.11 	0.067314 	4947 	0.066465
35.15 	0.056917 	4937 	0.056087
35.19 	0.060907 	4942 	0.059840
35.23 	0.059858 	4945 	0.058318
35.27 	0.059620 	4948 	0.058791
35.31 	0.057977 	4933 	0.056889
35.35 	0.058478 	4942 	0.057530
35.39 	0.052983 	4945 	0.052154
35.43 	0.058788 	4933 	0.057125
35.47 	0.061245 	4931 	0.059820
35.51 	0.057856 	4926 	0.056548
35.55 	0.059050 	4945 	0.058220
35.59 	0.057836 	4945 	0.056889
35.63 	0.057455 	4943 	0.056151
35.67 	0.052610 	4942 	0.051781
35.71 	0.053879 	4937 	0.053404
35.75 	0.055972 	4931 	0.055022
35.79 	0.059002 	4932 	0.057815
35.83 	0.051759 	4946 	0.050575
35.87 	0.063579 	4923 	0.062013
35.91 	0.060686 	4927 	0.059497
35.95 	0.061013 	4917 	0.059702
35.99 	0.064386 	4939 	0.063199
36.03 	0.051790 	4943 	0.051435
36.07 	0.064386 	4939 	0.063437
36.11 	0.057212 	4929 	0.056618
36.15 	0.060336 	4939 	0.059150
36.19 	0.055061 	4940 	0.053756
36.23 	0.059777 	4935 	0.057878
36.27 	0.057462 	4925 	0.056510
36.31 	0.061485 	4928 	0.060416
36.35 	0.062690 	4929 	0.061126
36.39 	0.053851 	4921 	0.053018
36.43 	0.056006 	4928 	0.055412
36.47 	0.054295 	4936 	0.053583
36.51 	0.063248 	4933 	0.062773
36.55 	0.059671 	4927 	0.058106
36.59 	0.054464 	4939 	0.053753
36.63 	0.060637 	4931 	0.060043
36.67 	0.054564 	4930 	0.053732
36.71 	0.053851 	4921 	0.052899
36.75 	0.059061 	4944 	0.058351
36.79 	0.054664 	4921 	0.054068
36.83 	0.057986 	4915 	0.057151
36.87 	0.057848 	4944 	0.057255
36.91 	0.051609 	4941 	0.051135
36.95 	0.052504 	4933 	0.051910
36.99 	0.053901 	4935 	0.053189
37.03 	0.059708 	4924 	0.058637
37.07 	0.057548 	4935 	0.056242
37.11 	0.055724 	4935 	0.054894
37.15 	0.052557 	4909 	0.051363
37.19 	0.053401 	4925 	0.052568
37.23 	0.053070 	4918 	0.052713
37.27 	0.053535 	4894 	0.052408
37.31 	0.057143 	4935 	0.056174
37.35 	0.051438 	4938 	0.050133
37.39 	0.051308 	4931 	0.050595
37.43 	0.053122 	4932 	0.051796
37.47 	0.054372 	4929 	0.053164
37.51 	0.050476 	4933 	0.049883
37.55 	0.059229 	4930 	0.058635
37.59 	0.051068 	4915 	0.050472
37.63 	0.054889 	4919 	0.054532
37.67 	0.057708 	4904 	0.056991
37.71 	0.059241 	4929 	0.057914
37.75 	0.051215 	4940 	0.050385
37.79 	0.052333 	4930 	0.051857
37.83 	0.052033 	4920 	0.051199
37.87 	0.054869 	4939 	0.053802
37.91 	0.053550 	4930 	0.052698
37.95 	0.052022 	4921 	0.051308
37.99 	0.060057 	4912 	0.059103
38.03 	0.053168 	4909 	0.052213
38.07 	0.053575 	4909 	0.052740
38.11 	0.054306 	4935 	0.053831
38.15 	0.047377 	4918 	0.046543
38.19 	0.055984 	4930 	0.055508
38.23 	0.055083 	4938 	0.054371
38.27 	0.055375 	4930 	0.054544
38.31 	0.057033 	4927 	0.055725
38.35 	0.056412 	4928 	0.055461
38.39 	0.056834 	4909 	0.055402
38.43 	0.059398 	4916 	0.058802
38.47 	0.058080 	4907 	0.057364
38.51 	0.061030 	4932 	0.060199
38.55 	0.065032 	4936 	0.063589
38.59 	0.060926 	4924 	0.059122
38.63 	0.052600 	4924 	0.051529
38.67 	0.061576 	4937 	0.060271
38.71 	0.054021 	4924 	0.052950
38.75 	0.059062 	4927 	0.058230
38.79 	0.052493 	4934 	0.051899
38.83 	0.050620 	4919 	0.049786
38.87 	0.054368 	4911 	0.053533
38.91 	0.050173 	4903 	0.049218
38.95 	0.044734 	4918 	0.044138
38.99 	0.054689 	4937 	0.053621
39.03 	0.046615 	4934 	0.045784
39.07 	0.048944 	4924 	0.048468
39.11 	0.050294 	4931 	0.049700
39.15 	0.046796 	4915 	0.045604
39.19 	0.050844 	4917 	0.049653
39.23 	0.050355 	4925 	0.049047
39.27 	0.052953 	4910 	0.052118
39.31 	0.047707 	4884 	0.046987
39.35 	0.047822 	4935 	0.046872
39.39 	0.049300 	4929 	0.048468
39.43 	0.046219 	4933 	0.045507
39.47 	0.045907 	4923 	0.044836
39.51 	0.048538 	4924 	0.047923
39.55 	0.048994 	4919 	0.047446
39.59 	0.050285 	4912 	0.049331
39.63 	0.048151 	4922 	0.047675
39.67 	0.058009 	4913 	0.057652
39.71 	0.044740 	4895 	0.044261
39.75 	0.059050 	4928 	0.057624
39.79 	0.047300 	4926 	0.046824
39.83 	0.050061 	4934 	0.049348
39.87 	0.045685 	4925 	0.045091
39.91 	0.044900 	4922 	0.044186
39.95 	0.048830 	4915 	0.048353
39.99 	0.045215 	4932 	0.044859
40.03 	0.043831 	4928 	0.043237
40.07 	0.043673 	4923 	0.043078
40.11 	0.043124 	4916 	0.042529
40.15 	0.049257 	4913 	0.048542
40.19 	0.046257 	4929 	0.045187
40.23 	0.052311 	4932 	0.052074
40.27 	0.045777 	4937 	0.045184
40.31 	0.051427 	4939 	0.050953
40.35 	0.050010 	4919 	0.049415
40.39 	0.046238 	4931 	0.045882
40.43 	0.043072 	4922 	0.042596
40.47 	0.051240 	4918 	0.051002
40.51 	0.041040 	4922 	0.040921
40.55 	0.042991 	4908 	0.041917
40.59 	0.046587 	4937 	0.045994
40.63 	0.047262 	4930 	0.046549
40.67 	0.043390 	4932 	0.042559
40.71 	0.044201 	4932 	0.043370
40.75 	0.049280 	4931 	0.048686
40.79 	0.047522 	4924 	0.046928
40.83 	0.041193 	4928 	0.040599
40.87 	0.046469 	4928 	0.046113
40.91 	0.048751 	4923 	0.048156
40.95 	0.054142 	4913 	0.053069
40.99 	0.044882 	4924 	0.044168
41.03 	0.050561 	4905 	0.050063
41.07 	0.049290 	4930 	0.048815
41.11 	0.043566 	4935 	0.042973
41.15 	0.041287 	4941 	0.040932
41.19 	0.044828 	4930 	0.043877
41.23 	0.041101 	4939 	0.040627
41.27 	0.048266 	4931 	0.047672
41.31 	0.045611 	4933 	0.044542
41.35 	0.045362 	4938 	0.045244
41.39 	0.044598 	4933 	0.044004
41.43 	0.047271 	4929 	0.046677
41.47 	0.042428 	4926 	0.042190
41.51 	0.049393 	4940 	0.048543
41.55 	0.041337 	4935 	0.040981
41.59 	0.043787 	4933 	0.043312
41.63 	0.049818 	4938 	0.049580
41.67 	0.042915 	4940 	0.042322
41.71 	0.041751 	4934 	0.041039
41.75 	0.040576 	4929 	0.039863
41.79 	0.045307 	4944 	0.044459
41.83 	0.043831 	4928 	0.043118
41.87 	0.044174 	4935 	0.043225
41.91 	0.040316 	4936 	0.039960
41.95 	0.047860 	4931 	0.047385
41.99 	0.044037 	4905 	0.043559
42.03 	0.040494 	4939 	0.040257
42.07 	0.043751 	4937 	0.043158
42.11 	0.048129 	4945 	0.047182
42.15 	0.037870 	4938 	0.037514
42.19 	0.040139 	4908 	0.039780
42.23 	0.042927 	4892 	0.042807
42.27 	0.042881 	4874 	0.042159
42.31 	0.040577 	4855 	0.040456
42.35 	0.042993 	4838 	0.042509
42.39 	0.043297 	4804 	0.043053
42.43 	0.043823 	4792 	0.043334
42.47 	0.043442 	4765 	0.042581
42.51 	0.041535 	4743 	0.040794
42.55 	0.040569 	4708 	0.040196
42.59 	0.039966 	4729 	0.039471
42.63 	0.043534 	4709 	0.042891
42.67 	0.043980 	4684 	0.043729
42.71 	0.040746 	4663 	0.040369
42.75 	0.041152 	4617 	0.040645
42.79 	0.042994 	4582 	0.042739
42.83 	0.041446 	4536 	0.040650
42.87 	0.043121 	4499 	0.042188
42.91 	0.041741 	4456 	0.041347
42.95 	0.035779 	4416 	0.035381
42.99 	0.041049 	4385 	0.040626
43.03 	0.042926 	4333 	0.042115
43.07 	0.042132 	4296 	0.041178
43.11 	0.045123 	4255 	0.044435
43.15 	0.045411 	4206 	0.045411
43.19 	0.042442 	4194 	0.042000
43.23 	0.035628 	4154 	0.035628
43.27 	0.039220 	4105 	0.038792
43.31 	0.037754 	4079 	0.037324
43.35 	0.039435 	4032 	0.037934
43.39 	0.046477 	4002 	0.046330
43.43 	0.044444 	3960 	0.044149
43.47 	0.041571 	3921 	0.040973
43.51 	0.038690 	3877 	0.038236
43.55 	0.045209 	2964 	0.044616
43.59 	0.039519 	1746 	0.039183
43.63 	0.050949 	1001 	0.049779
43.67 	0.039841 	502 	0.039841
43.71 	0.058577 	239 	0.058577
43.75 	0.000000 	16 	0.000000