File: Example_Data/25SC_s1_0016.004.dat
#F C:\frames\spec\25SC_s1_0016.004
#C title =s:16 frm:4 25SC_s1
#C wavelength =0.15406

#S 1  fr_average C:\frames\spec\25SC_s1_0016.004 C:\win32app\speccom\mask.axs chi 0 180 0 360 0.02
#C 2 theta =0.000000 to 180 deg
#C   q   =0.000000 to 81.568 nm^-1
#C  chi  =0.000000 to 360 deg
#C collumns:
#C  1 position (2theta or chi in degrees)
#C  2 average intensity (sum of all counts in the region divided with number of pixels)
#C  3 Number of pixels in region)
#C  4 error (sum of sqrt(intensity) for all pixels divided by number)
#N 4
#L TTh  Int  N_pix  Err
32.99 	0.081967 	61 	0.081967
33.03 	0.051761 	1391 	0.051340
33.07 	0.062927 	2050 	0.062355
33.11 	0.054285 	2579 	0.053149
33.15 	0.052017 	2999 	0.051627
33.19 	0.051765 	3342 	0.051590
33.23 	0.057337 	3523 	0.056340
33.27 	0.056749 	3630 	0.056104
33.31 	0.057377 	3660 	0.056577
33.35 	0.056849 	3694 	0.056215
33.39 	0.059533 	3729 	0.057962
33.43 	0.056634 	3761 	0.055699
33.47 	0.056609 	3798 	0.055683
33.51 	0.056356 	3815 	0.055742
33.55 	0.060890 	3843 	0.059213
33.59 	0.055412 	3880 	0.054808
33.63 	0.065323 	3919 	0.063953
33.67 	0.055387 	3954 	0.054942
33.71 	0.058868 	3975 	0.058131
33.75 	0.056014 	3999 	0.055135
33.79 	0.060629 	4041 	0.060194
33.83 	0.059506 	4050 	0.058470
33.87 	0.057893 	4111 	0.056896
33.91 	0.055676 	4149 	0.054970
33.95 	0.063860 	4181 	0.061432
33.99 	0.058333 	4200 	0.056916
34.03 	0.059614 	4244 	0.058095
34.07 	0.060684 	4268 	0.059723
34.11 	0.061367 	4302 	0.059869
34.15 	0.054491 	4331 	0.053950
34.19 	0.055708 	4362 	0.054478
34.23 	0.060323 	4393 	0.059123
34.27 	0.061058 	4422 	0.059601
34.31 	0.061014 	4458 	0.059415
34.35 	0.064005 	4484 	0.062960
34.39 	0.064194 	4502 	0.062632
34.43 	0.055078 	4539 	0.053917
34.47 	0.058580 	4592 	0.057560
34.51 	0.054494 	4606 	0.053456
34.55 	0.058798 	4643 	0.058167
34.59 	0.055401 	4675 	0.054399
34.63 	0.054140 	4710 	0.053270
34.67 	0.059059 	4741 	0.057824
34.71 	0.054763 	4766 	0.054394
34.75 	0.053245 	4808 	0.052026
34.79 	0.053068 	4824 	0.051975
34.83 	0.052859 	4862 	0.052136
34.87 	0.058751 	4868 	0.057187
34.91 	0.061655 	4882 	0.060795
34.95 	0.054601 	4890 	0.054002
34.99 	0.053094 	4897 	0.052137
35.03 	0.053611 	4943 	0.053019
35.07 	0.060121 	4940 	0.059291
35.11 	0.059632 	4947 	0.058448
35.15 	0.062589 	4937 	0.060690
35.19 	0.059085 	4942 	0.058374
35.23 	0.053589 	4945 	0.052879
35.27 	0.061641 	4948 	0.059747
35.31 	0.058585 	4933 	0.057398
35.35 	0.061514 	4942 	0.060921
35.39 	0.062690 	4945 	0.061604
35.43 	0.060207 	4933 	0.058901
35.47 	0.056784 	4931 	0.056071
35.51 	0.060292 	4926 	0.059817
35.55 	0.060667 	4945 	0.059463
35.59 	0.062487 	4945 	0.061540
35.63 	0.062108 	4943 	0.060923
35.67 	0.059692 	4942 	0.058488
35.71 	0.059348 	4937 	0.058280
35.75 	0.053336 	4931 	0.052148
35.79 	0.056164 	4932 	0.055214
35.83 	0.060655 	4946 	0.059708
35.87 	0.061142 	4923 	0.059357
35.91 	0.052770 	4927 	0.052414
35.95 	0.059182 	4917 	0.058229
35.99 	0.063981 	4939 	0.062676
36.03 	0.060692 	4943 	0.059507
36.07 	0.059526 	4939 	0.058340
36.11 	0.063299 	4929 	0.062229
36.15 	0.061956 	4939 	0.060533
36.19 	0.063968 	4940 	0.062426
36.23 	0.056940 	4935 	0.056228
36.27 	0.063147 	4925 	0.061819
36.31 	0.056818 	4928 	0.055867
36.35 	0.062082 	4929 	0.060537
36.39 	0.065637 	4921 	0.064685
36.43 	0.058644 	4928 	0.058169
36.47 	0.060170 	4936 	0.058983
36.51 	0.054936 	4933 	0.053511
36.55 	0.053988 	4927 	0.052304
36.59 	0.062158 	4939 	0.061209
36.63 	0.058000 	4931 	0.056931
36.67 	0.054361 	4930 	0.053410
36.71 	0.059134 	4921 	0.058658
36.75 	0.060680 	4944 	0.059613
36.79 	0.057915 	4921 	0.056725
36.83 	0.063683 	4915 	0.062610
36.87 	0.056634 	4944 	0.055568
36.91 	0.049383 	4941 	0.049027
36.95 	0.053720 	4933 	0.052414
36.99 	0.063627 	4935 	0.062559
37.03 	0.052193 	4924 	0.051480
37.07 	0.059169 	4935 	0.057626
37.11 	0.052888 	4935 	0.052175
37.15 	0.059075 	4909 	0.058598
37.19 	0.056244 	4925 	0.055530
37.23 	0.055714 	4918 	0.054741
37.27 	0.064365 	4894 	0.063287
37.31 	0.050861 	4935 	0.049892
37.35 	0.060956 	4938 	0.059888
37.39 	0.061651 	4931 	0.060463
37.43 	0.052717 	4932 	0.052123
37.47 	0.048286 	4929 	0.047691
37.51 	0.054328 	4933 	0.053616
37.55 	0.053347 	4930 	0.052872
37.59 	0.046796 	4915 	0.045842
37.63 	0.059158 	4919 	0.058206
37.67 	0.052610 	4904 	0.052013
37.71 	0.050517 	4929 	0.049448
37.75 	0.055668 	4940 	0.054364
37.79 	0.052535 	4930 	0.052417
37.83 	0.053252 	4920 	0.052657
37.87 	0.047580 	4939 	0.047106
37.91 	0.055578 	4930 	0.054509
37.95 	0.057712 	4921 	0.056521
37.99 	0.055171 	4912 	0.054217
38.03 	0.060705 	4909 	0.059870
38.07 	0.056020 	4909 	0.055184
38.11 	0.062209 	4935 	0.061378
38.15 	0.061204 	4918 	0.060013
38.19 	0.059432 	4930 	0.058363
38.23 	0.056096 	4938 	0.055265
38.27 	0.060446 	4930 	0.060090
38.31 	0.059671 	4927 	0.058582
38.35 	0.067167 	4928 	0.065741
38.39 	0.070890 	4909 	0.068742
38.43 	0.061229 	4916 	0.059799
38.47 	0.067251 	4907 	0.065679
38.51 	0.060827 	4932 	0.059877
38.55 	0.058752 	4936 	0.057328
38.59 	0.060926 	4924 	0.059955
38.63 	0.062754 	4924 	0.061445
38.67 	0.062994 	4937 	0.062045
38.71 	0.062957 	4924 	0.061748
38.75 	0.058859 	4927 	0.057314
38.79 	0.051480 	4934 	0.050648
38.83 	0.056719 	4919 	0.055647
38.87 	0.058644 	4911 	0.057570
38.91 	0.054660 	4903 	0.053705
38.95 	0.054697 	4918 	0.053605
38.99 	0.053879 	4937 	0.052811
39.03 	0.051480 	4934 	0.051005
39.07 	0.050569 	4924 	0.049498
39.11 	0.051105 	4931 	0.049798
39.15 	0.053510 	4915 	0.052795
39.19 	0.054708 	4917 	0.053259
39.23 	0.058477 	4925 	0.057288
39.27 	0.046436 	4910 	0.045601
39.31 	0.056511 	4884 	0.055552
39.35 	0.060993 	4935 	0.059806
39.39 	0.055995 	4929 	0.054688
39.43 	0.060612 	4933 	0.059662
39.47 	0.060735 	4923 	0.059902
39.51 	0.054833 	4924 	0.053129
39.55 	0.053263 	4919 	0.052787
39.59 	0.055171 	4912 	0.053740
39.63 	0.049370 	4922 	0.048656
39.67 	0.052107 	4913 	0.051272
39.71 	0.053933 	4895 	0.052975
39.75 	0.062703 	4928 	0.061871
39.79 	0.051157 	4926 	0.050444
39.83 	0.057560 	4934 	0.056610
39.87 	0.055635 	4925 	0.054683
39.91 	0.057091 	4922 	0.056258
39.95 	0.053713 	4915 	0.052879
39.99 	0.057786 	4932 	0.056361
40.03 	0.055398 	4928 	0.055041
40.07 	0.056673 	4923 	0.055344
40.11 	0.050854 	4916 	0.050020
40.15 	0.060248 	4913 	0.059533
40.19 	0.058633 	4929 	0.057920
40.23 	0.049676 	4932 	0.049200
40.27 	0.051043 	4937 	0.050213
40.31 	0.043329 	4939 	0.042617
40.35 	0.051230 	4919 	0.050396
40.39 	0.049888 	4931 	0.049176
40.43 	0.050386 	4922 	0.049077
40.47 	0.056934 	4918 	0.055623
40.51 	0.053434 	4922 	0.052600
40.55 	0.051345 	4908 	0.050867
40.59 	0.053069 	4937 	0.052594
40.63 	0.056592 	4930 	0.055998
40.67 	0.052514 	4932 	0.051445
40.71 	0.053325 	4932 	0.052375
40.75 	0.050091 	4931 	0.049616
40.79 	0.057474 	4924 	0.056403
40.83 	0.060268 	4928 	0.059674
40.87 	0.055195 	4928 	0.054363
40.91 	0.047329 	4923 	0.046853
40.95 	0.050478 	4913 	0.049882
40.99 	0.046710 	4924 	0.045977
41.03 	0.044037 	4905 	0.043798
41.07 	0.050101 	4930 	0.049864
41.11 	0.055117 	4935 	0.054404
41.15 	0.048978 	4941 	0.048029
41.19 	0.050913 	4930 	0.049962
41.23 	0.050213 	4939 	0.049620
41.27 	0.050294 	4931 	0.049344
41.31 	0.048449 	4933 	0.048212
41.35 	0.051640 	4938 	0.050435
41.39 	0.046219 	4933 	0.045982
41.43 	0.048691 	4929 	0.048097
41.47 	0.049127 	4926 	0.048176
41.51 	0.041700 	4940 	0.041345
41.55 	0.048430 	4935 	0.048311
41.59 	0.053517 	4933 	0.052092
41.63 	0.055083 	4938 	0.054134
41.67 	0.050607 	4940 	0.048908
41.71 	0.049858 	4934 	0.049146
41.75 	0.046054 	4929 	0.044984
41.79 	0.048139 	4944 	0.047665
41.83 	0.047484 	4928 	0.047127
41.87 	0.049443 	4935 	0.048731
41.91 	0.051256 	4936 	0.050544
41.95 	0.049483 	4931 	0.048602
41.99 	0.042610 	4905 	0.042251
42.03 	0.043329 	4939 	0.042973
42.07 	0.046992 	4937 	0.046280
42.11 	0.046309 	4945 	0.046191
42.15 	0.047995 	4938 	0.047283
42.19 	0.044010 	4908 	0.043413
42.23 	0.043336 	4892 	0.042358
42.27 	0.048420 	4874 	0.048300
42.31 	0.047168 	4855 	0.045841
42.35 	0.046507 	4838 	0.045659
42.39 	0.043714 	4804 	0.043226
42.43 	0.051336 	4792 	0.050847
42.47 	0.045750 	4765 	0.045381
42.51 	0.048282 	4743 	0.048035
42.55 	0.047791 	4708 	0.046920
42.59 	0.047790 	4729 	0.047171
42.63 	0.052877 	4709 	0.051882
42.67 	0.049103 	4684 	0.048728
42.71 	0.042891 	4663 	0.042640
42.75 	0.047217 	4617 	0.046582
42.79 	0.049323 	4582 	0.048812
42.83 	0.047619 	4536 	0.046973
42.87 	0.042009 	4499 	0.040968
42.91 	0.044659 	4456 	0.043870
42.95 	0.045063 	4416 	0.044798
42.99 	0.049031 	4385 	0.048096
43.03 	0.045465 	4333 	0.045059
43.07 	0.046788 	4296 	0.046242
43.11 	0.039483 	4255 	0.039070
43.15 	0.047076 	4206 	0.046379
43.19 	0.045541 	4194 	0.044983
43.23 	0.048387 	4154 	0.047964
43.27 	0.043118 	4105 	0.042690
43.31 	0.047316 	4079 	0.046167
43.35 	0.049107 	4032 	0.048381
43.39 	0.039730 	4002 	0.038998
43.43 	0.043434 	3960 	0.042547
43.47 	0.049732 	3921 	0.048214
43.51 	0.047201 	3877 	0.046446
43.55 	0.049258 	2964 	0.048862
43.59 	0.041810 	1746 	0.041139
43.63 	0.048951 	1001 	0.048366
43.67 	0.053785 	502 	0.053785
43.71 	0.050209 	239 	0.050209
43.75 	0.000000 	16 	0.000000