File: Example_Data/25SC_s1_0034.001.dat
#F C:\frames\spec\25SC_s1_0034.001
#C title =s:34 frm:1 25SC_s1
#C wavelength =0.15406

#S 1  fr_average C:\frames\spec\25SC_s1_0034.001 C:\win32app\speccom\mask.axs chi 0 180 0 360 0.02
#C 2 theta =0.000000 to 180 deg
#C   q   =0.000000 to 81.568 nm^-1
#C  chi  =0.000000 to 360 deg
#C collumns:
#C  1 position (2theta or chi in degrees)
#C  2 average intensity (sum of all counts in the region divided with number of pixels)
#C  3 Number of pixels in region)
#C  4 error (sum of sqrt(intensity) for all pixels divided by number)
#N 4
#L TTh  Int  N_pix  Err
32.99 	0.016393 	61 	0.016393
33.03 	0.058231 	1391 	0.056478
33.07 	0.064878 	2050 	0.063402
33.11 	0.058938 	2579 	0.057802
33.15 	0.058686 	2999 	0.058100
33.19 	0.052065 	3342 	0.050662
33.23 	0.052796 	3523 	0.051632
33.27 	0.063085 	3630 	0.061956
33.31 	0.059016 	3660 	0.058856
33.35 	0.053871 	3694 	0.053554
33.39 	0.064092 	3729 	0.062993
33.43 	0.058761 	3761 	0.057359
33.47 	0.059242 	3798 	0.058471
33.51 	0.060550 	3815 	0.059476
33.55 	0.058548 	3843 	0.057303
33.59 	0.061082 	3880 	0.058969
33.63 	0.066088 	3919 	0.064868
33.67 	0.055134 	3954 	0.054245
33.71 	0.057107 	3975 	0.055633
33.75 	0.056014 	3999 	0.055135
33.79 	0.065825 	4041 	0.064666
33.83 	0.059012 	4050 	0.058723
33.87 	0.061785 	4111 	0.060931
33.91 	0.063148 	4149 	0.062018
33.95 	0.058598 	4181 	0.058178
33.99 	0.055238 	4200 	0.053704
34.03 	0.051131 	4244 	0.050027
34.07 	0.054592 	4268 	0.053906
34.11 	0.058345 	4302 	0.057119
34.15 	0.054260 	4331 	0.053719
34.19 	0.052728 	4362 	0.052325
34.23 	0.054860 	4393 	0.053638
34.27 	0.052917 	4422 	0.052387
34.31 	0.060565 	4458 	0.059777
34.35 	0.058876 	4484 	0.058092
34.39 	0.049311 	4502 	0.048531
34.43 	0.060145 	4539 	0.059221
34.47 	0.052918 	4592 	0.051515
34.51 	0.056014 	4606 	0.055760
34.55 	0.054921 	4643 	0.054291
34.59 	0.050909 	4675 	0.050157
34.63 	0.060085 	4710 	0.058966
34.67 	0.056739 	4741 	0.056121
34.71 	0.056861 	4766 	0.056001
34.75 	0.051997 	4808 	0.051022
34.79 	0.054726 	4824 	0.053269
34.83 	0.054916 	4862 	0.053590
34.87 	0.051356 	4868 	0.050874
34.91 	0.065342 	4882 	0.064142
34.95 	0.057669 	4890 	0.056710
34.99 	0.053502 	4897 	0.053263
35.03 	0.056039 	4943 	0.055683
35.07 	0.054656 	4940 	0.053351
35.11 	0.051951 	4947 	0.051714
35.15 	0.059955 	4937 	0.058888
35.19 	0.052813 	4942 	0.052101
35.23 	0.056218 	4945 	0.055152
35.27 	0.052749 	4948 	0.051683
35.31 	0.054733 	4933 	0.054140
35.35 	0.056657 	4942 	0.055689
35.39 	0.051163 	4945 	0.050689
35.43 	0.056355 	4933 	0.055405
35.47 	0.051308 	4931 	0.050239
35.51 	0.056638 	4926 	0.055687
35.55 	0.058847 	4945 	0.058018
35.59 	0.054803 	4945 	0.053855
35.63 	0.052600 	4943 	0.051652
35.67 	0.053824 	4942 	0.053113
35.71 	0.057120 	4937 	0.056764
35.75 	0.058000 	4931 	0.057525
35.79 	0.046229 	4932 	0.045754
35.83 	0.052972 	4946 	0.052025
35.87 	0.054641 	4923 	0.053214
35.91 	0.052162 	4927 	0.051567
35.95 	0.058369 	4917 	0.058012
35.99 	0.058311 	4939 	0.057718
36.03 	0.060490 	4943 	0.059166
36.07 	0.059729 	4939 	0.058780
36.11 	0.061270 	4929 	0.060270
36.15 	0.061348 	4939 	0.060044
36.19 	0.058704 	4940 	0.057361
36.23 	0.058764 	4935 	0.057696
36.27 	0.057462 	4925 	0.056867
36.31 	0.052963 	4928 	0.052249
36.35 	0.053561 	4929 	0.052847
36.39 	0.049787 	4921 	0.048953
36.43 	0.051745 	4928 	0.051032
36.47 	0.059968 	4936 	0.058899
36.51 	0.054328 	4933 	0.053497
36.55 	0.055815 	4927 	0.054626
36.59 	0.048593 	4939 	0.047763
36.63 	0.051308 	4931 	0.050833
36.67 	0.050101 	4930 	0.048894
36.71 	0.054664 	4921 	0.053592
36.75 	0.059668 	4944 	0.058602
36.79 	0.049787 	4921 	0.048953
36.83 	0.053510 	4915 	0.052675
36.87 	0.056432 	4944 	0.055484
36.91 	0.059300 	4941 	0.058114
36.95 	0.058180 	4933 	0.056992
36.99 	0.052888 	4935 	0.052057
37.03 	0.055849 	4924 	0.054878
37.07 	0.054914 	4935 	0.053925
37.11 	0.054306 	4935 	0.053356
37.15 	0.057446 	4909 	0.056491
37.19 	0.056041 	4925 	0.055327
37.23 	0.057544 	4918 	0.056214
37.27 	0.052718 	4894 	0.051880
37.31 	0.062411 	4935 	0.060987
37.35 	0.050628 	4938 	0.049797
37.39 	0.056378 	4931 	0.055428
37.43 	0.057380 	4932 	0.056193
37.47 	0.051735 	4929 	0.050903
37.51 	0.058788 	4933 	0.057600
37.55 	0.059432 	4930 	0.058224
37.59 	0.064293 	4915 	0.063220
37.63 	0.051637 	4919 	0.050684
37.67 	0.054445 	4904 	0.054326
37.71 	0.057212 	4929 	0.056499
37.75 	0.055263 	4940 	0.053840
37.79 	0.052535 	4930 	0.050991
37.83 	0.059350 	4920 	0.058159
37.87 	0.051225 	4939 	0.050513
37.91 	0.056795 	4930 	0.055845
37.95 	0.060150 	4921 	0.058940
37.99 	0.055375 	4912 	0.054659
38.03 	0.061112 	4909 	0.060277
38.07 	0.059075 	4909 	0.058598
38.11 	0.054711 	4935 	0.053406
38.15 	0.053884 	4918 	0.053526
38.19 	0.056389 	4930 	0.055439
38.23 	0.058931 	4938 	0.057982
38.27 	0.065923 	4930 	0.064735
38.31 	0.064136 	4927 	0.063542
38.35 	0.070008 	4928 	0.068443
38.39 	0.066205 	4909 	0.064892
38.43 	0.069772 	4916 	0.068700
38.47 	0.073568 	4907 	0.072355
38.51 	0.069951 	4932 	0.069357
38.55 	0.078404 	4936 	0.076485
38.59 	0.072705 	4924 	0.071634
38.63 	0.063160 	4924 	0.061138
38.67 	0.066235 	4937 	0.064929
38.71 	0.057474 	4924 	0.056522
38.75 	0.053176 	4927 	0.051869
38.79 	0.058573 	4934 	0.057742
38.83 	0.055499 	4919 	0.054546
38.87 	0.054571 	4911 	0.053975
38.91 	0.051805 	4903 	0.051088
38.95 	0.051444 	4918 	0.050729
38.99 	0.045777 	4937 	0.044946
39.03 	0.050061 	4934 	0.049230
39.07 	0.045898 	4924 	0.045660
39.11 	0.046035 	4931 	0.045679
39.15 	0.051679 	4915 	0.050844
39.19 	0.046573 	4917 	0.046454
39.23 	0.041624 	4925 	0.040673
39.27 	0.048065 	4910 	0.047827
39.31 	0.050778 	4884 	0.049799
39.35 	0.042148 	4935 	0.041792
39.39 	0.040576 	4929 	0.039982
39.43 	0.046422 	4933 	0.045235
39.47 	0.047329 	4923 	0.046853
39.51 	0.044070 	4924 	0.043594
39.55 	0.042285 	4919 	0.041690
39.59 	0.039495 	4912 	0.038899
39.63 	0.043275 	4922 	0.042680
39.67 	0.043354 	4913 	0.042758
39.71 	0.043309 	4895 	0.042831
39.75 	0.048093 	4928 	0.047498
39.79 	0.047097 	4926 	0.046502
39.83 	0.044994 	4934 	0.044282
39.87 	0.047919 	4925 	0.047443
39.91 	0.043275 	4922 	0.042442
39.95 	0.040488 	4915 	0.040369
39.99 	0.042579 	4932 	0.041748
40.03 	0.046063 	4928 	0.045469
40.07 	0.040016 	4923 	0.039897
40.11 	0.048617 	4916 	0.048021
40.15 	0.045186 	4913 	0.044590
40.19 	0.038750 	4929 	0.038394
40.23 	0.040349 	4932 	0.040349
40.27 	0.046384 	4937 	0.045910
40.31 	0.040089 	4939 	0.039377
40.35 	0.037609 	4919 	0.036776
40.39 	0.042791 	4931 	0.042078
40.43 	0.037586 	4922 	0.037110
40.47 	0.041074 	4918 	0.040835
40.51 	0.042462 	4922 	0.041610
40.55 	0.043602 	4908 	0.043244
40.59 	0.042941 	4937 	0.042704
40.63 	0.042191 	4930 	0.041359
40.67 	0.034469 	4932 	0.034112
40.71 	0.039943 	4932 	0.039468
40.75 	0.042385 	4931 	0.041672
40.79 	0.045898 	4924 	0.045184
40.83 	0.039773 	4928 	0.039060
40.87 	0.046875 	4928 	0.046162
40.91 	0.036969 	4923 	0.036493
40.95 	0.046815 	4913 	0.045980
40.99 	0.037977 	4924 	0.037620
41.03 	0.035066 	4905 	0.034827
41.07 	0.036105 	4930 	0.035868
41.11 	0.036879 	4935 	0.036523
41.15 	0.039466 	4941 	0.039110
41.19 	0.038540 	4930 	0.038183
41.23 	0.040494 	4939 	0.039782
41.27 	0.037721 	4931 	0.037483
41.31 	0.040949 	4933 	0.040474
41.35 	0.036655 	4938 	0.036536
41.39 	0.032637 	4933 	0.032162
41.43 	0.041591 	4929 	0.040739
41.47 	0.034105 	4926 	0.033510
41.51 	0.036640 	4940 	0.036165
41.55 	0.038703 	4935 	0.037991
41.59 	0.041962 	4933 	0.041725
41.63 	0.038477 	4938 	0.037765
41.67 	0.038259 	4940 	0.037903
41.71 	0.037900 	4934 	0.037307
41.75 	0.042808 	4929 	0.042570
41.79 	0.041667 	4944 	0.041074
41.83 	0.034700 	4928 	0.034581
41.87 	0.041743 	4935 	0.041268
41.91 	0.040519 	4936 	0.040163
41.95 	0.037315 	4931 	0.036959
41.99 	0.038124 	4905 	0.037527
42.03 	0.037659 	4939 	0.037422
42.07 	0.038080 	4937 	0.037605
42.11 	0.032154 	4945 	0.032035
42.15 	0.043135 	4938 	0.042285
42.19 	0.035452 	4908 	0.035214
42.23 	0.040474 	4892 	0.039636
42.27 	0.042265 	4874 	0.041784
42.31 	0.040989 	4855 	0.040385
42.35 	0.040306 	4838 	0.039943
42.39 	0.035595 	4804 	0.034742
42.43 	0.035684 	4792 	0.035440
42.47 	0.033368 	4765 	0.033000
42.51 	0.044487 	4743 	0.044116
42.55 	0.038020 	4708 	0.037627
42.59 	0.034680 	4729 	0.034164
42.63 	0.040773 	4709 	0.040027
42.67 	0.040350 	4684 	0.039725
42.71 	0.039031 	4663 	0.038403
42.75 	0.037037 	4617 	0.036636
42.79 	0.038411 	4582 	0.038411
42.83 	0.036376 	4536 	0.035859
42.87 	0.040676 	4499 	0.039764
42.91 	0.038824 	4456 	0.038430
42.95 	0.037364 	4416 	0.036834
42.99 	0.042189 	4385 	0.041521
43.03 	0.040619 	4333 	0.040483
43.07 	0.036080 	4296 	0.035807
43.11 	0.039483 	4255 	0.038795
43.15 	0.036852 	4206 	0.036434
43.19 	0.036719 	4194 	0.036440
43.23 	0.038036 	4154 	0.037472
43.27 	0.038733 	4105 	0.037877
43.31 	0.034567 	4079 	0.034567
43.35 	0.033978 	4032 	0.033978
43.39 	0.045477 	4002 	0.044599
43.43 	0.039646 	3960 	0.039646
43.47 	0.034175 	3921 	0.033727
43.51 	0.037400 	3877 	0.036947
43.55 	0.031039 	2964 	0.030446
43.59 	0.044674 	1746 	0.044674
43.63 	0.036963 	1001 	0.035793
43.67 	0.031873 	502 	0.031873
43.71 	0.046025 	239 	0.043574
43.75 	0.000000 	16 	0.000000