File: Example_Data/25SC_s1_0043.003.dat
#F C:\frames\spec\25SC_s1_0043.003
#C title =s:43 frm:3 25SC_s1
#C wavelength =0.15406

#S 1  fr_average C:\frames\spec\25SC_s1_0043.003 C:\win32app\speccom\mask.axs chi 0 180 0 360 0.02
#C 2 theta =0.000000 to 180 deg
#C   q   =0.000000 to 81.568 nm^-1
#C  chi  =0.000000 to 360 deg
#C collumns:
#C  1 position (2theta or chi in degrees)
#C  2 average intensity (sum of all counts in the region divided with number of pixels)
#C  3 Number of pixels in region)
#C  4 error (sum of sqrt(intensity) for all pixels divided by number)
#N 4
#L TTh  Int  N_pix  Err
32.99 	0.032787 	61 	0.032787
33.03 	0.064702 	1391 	0.063017
33.07 	0.062927 	2050 	0.061212
33.11 	0.060101 	2579 	0.058965
33.15 	0.064355 	2999 	0.063183
33.19 	0.054159 	3342 	0.053283
33.23 	0.057337 	3523 	0.056007
33.27 	0.059504 	3630 	0.058375
33.31 	0.056557 	3660 	0.056237
33.35 	0.057932 	3694 	0.056663
33.39 	0.054706 	3729 	0.054706
33.43 	0.060888 	3761 	0.059772
33.47 	0.054502 	3798 	0.053885
33.51 	0.064744 	3815 	0.063363
33.55 	0.059329 	3843 	0.058109
33.59 	0.062887 	3880 	0.061226
33.63 	0.059454 	3919 	0.058557
33.67 	0.065503 	3954 	0.064294
33.71 	0.065157 	3975 	0.063978
33.75 	0.056264 	3999 	0.055385
33.79 	0.057412 	4041 	0.056687
33.83 	0.057284 	4050 	0.055693
33.87 	0.063002 	4111 	0.062004
33.91 	0.064835 	4149 	0.063564
33.95 	0.055489 	4181 	0.054648
33.99 	0.060000 	4200 	0.059163
34.03 	0.049953 	4244 	0.049263
34.07 	0.053655 	4268 	0.052397
34.11 	0.054858 	4302 	0.054177
34.15 	0.055876 	4331 	0.055200
34.19 	0.061669 	4362 	0.060707
34.23 	0.057136 	4393 	0.056181
34.27 	0.056309 	4422 	0.055250
34.31 	0.061687 	4458 	0.061293
34.35 	0.060437 	4484 	0.059000
34.39 	0.059529 	4502 	0.058597
34.43 	0.056620 	4539 	0.056362
34.47 	0.060976 	4592 	0.059572
34.51 	0.060573 	4606 	0.059556
34.55 	0.062029 	4643 	0.061146
34.59 	0.057968 	4675 	0.057216
34.63 	0.057113 	4710 	0.055351
34.67 	0.064332 	4741 	0.062726
34.71 	0.054553 	4766 	0.053693
34.75 	0.057404 	4808 	0.056186
34.79 	0.064262 	4824 	0.062805
34.83 	0.054916 	4862 	0.054193
34.87 	0.055053 	4868 	0.054452
34.91 	0.058992 	4882 	0.058032
34.95 	0.059305 	4890 	0.058107
34.99 	0.067388 	4897 	0.066312
35.03 	0.060894 	4943 	0.060183
35.07 	0.057490 	4940 	0.057134
35.11 	0.058217 	4947 	0.057270
35.15 	0.056107 	4937 	0.055039
35.19 	0.060907 	4942 	0.059228
35.23 	0.056825 	4945 	0.055048
35.27 	0.061237 	4948 	0.059915
35.31 	0.058180 	4933 	0.057705
35.35 	0.056860 	4942 	0.056148
35.39 	0.057836 	4945 	0.056415
35.43 	0.055342 	4933 	0.055104
35.47 	0.056986 	4931 	0.055917
35.51 	0.053796 	4926 	0.052726
35.55 	0.054196 	4945 	0.053485
35.59 	0.056825 	4945 	0.056114
35.63 	0.060085 	4943 	0.059137
35.67 	0.050992 	4942 	0.050280
35.71 	0.056107 	4937 	0.055514
35.75 	0.062462 	4931 	0.061155
35.79 	0.054947 	4932 	0.053997
35.83 	0.059240 	4946 	0.058766
35.87 	0.056470 	4923 	0.055994
35.91 	0.058453 	4927 	0.057502
35.95 	0.057352 	4917 	0.056280
35.99 	0.057299 	4939 	0.056706
36.03 	0.053207 	4943 	0.052851
36.07 	0.054060 	4939 	0.052992
36.11 	0.051938 	4929 	0.051462
36.15 	0.054667 	4939 	0.054430
36.19 	0.059919 	4940 	0.059326
36.23 	0.059169 	4935 	0.058457
36.27 	0.053401 	4925 	0.052568
36.31 	0.051745 	4928 	0.050556
36.35 	0.054169 	4929 	0.053575
36.39 	0.056086 	4921 	0.054896
36.43 	0.060268 	4928 	0.059198
36.47 	0.053890 	4936 	0.052822
36.51 	0.059396 	4933 	0.058526
36.55 	0.054597 	4927 	0.054003
36.59 	0.052237 	4939 	0.051644
36.63 	0.054553 	4931 	0.053721
36.67 	0.049696 	4930 	0.048151
36.71 	0.058525 	4921 	0.057691
36.75 	0.056028 	4944 	0.054843
36.79 	0.056696 	4921 	0.055743
36.83 	0.049847 	4915 	0.049113
36.87 	0.056634 	4944 	0.055449
36.91 	0.056264 	4941 	0.055197
36.95 	0.054936 	4933 	0.054699
36.99 	0.051672 	4935 	0.051078
37.03 	0.053615 	4924 	0.052901
37.07 	0.056332 	4935 	0.055264
37.11 	0.056738 	4935 	0.055393
37.15 	0.054186 	4909 	0.053470
37.19 	0.049543 	4925 	0.048829
37.23 	0.052054 	4918 	0.051101
37.27 	0.056804 	4894 	0.056206
37.31 	0.050253 	4935 	0.048829
37.35 	0.048805 	4938 	0.047975
37.39 	0.052728 	4931 	0.052015
37.43 	0.056367 	4932 	0.056129
37.47 	0.052546 	4929 	0.051358
37.51 	0.051287 	4933 	0.050575
37.55 	0.049696 	4930 	0.048270
37.59 	0.053917 	4915 	0.053201
37.63 	0.052856 	4919 	0.052142
37.67 	0.054241 	4904 	0.053644
37.71 	0.051532 	4929 	0.050938
37.75 	0.049393 	4940 	0.048800
37.79 	0.053753 	4930 	0.052564
37.83 	0.052642 	4920 	0.051194
37.87 	0.048795 	4939 	0.048439
37.91 	0.051521 	4930 	0.050808
37.95 	0.047958 	4921 	0.047124
37.99 	0.052728 	4912 	0.052370
38.03 	0.056223 	4909 	0.054911
38.07 	0.053371 	4909 	0.052775
38.11 	0.050051 	4935 	0.049319
38.15 	0.058357 	4918 	0.057762
38.19 	0.053144 	4930 	0.052075
38.23 	0.055691 	4938 	0.054742
38.27 	0.054361 	4930 	0.053767
38.31 	0.056627 	4927 	0.056032
38.35 	0.060877 	4928 	0.060025
38.39 	0.059483 	4909 	0.058528
38.43 	0.069569 	4916 	0.067901
38.47 	0.060526 	4907 	0.059929
38.51 	0.066302 	4932 	0.065114
38.55 	0.059360 	4936 	0.058410
38.59 	0.055240 	4924 	0.054526
38.63 	0.061535 	4924 	0.059989
38.67 	0.052664 	4937 	0.052070
38.71 	0.052803 	4924 	0.051712
38.75 	0.052567 	4927 	0.051497
38.79 	0.052493 	4934 	0.051781
38.83 	0.051840 	4919 	0.051721
38.87 	0.049481 	4911 	0.049123
38.91 	0.050581 	4903 	0.049745
38.95 	0.045140 	4918 	0.044426
38.99 	0.045169 	4937 	0.044813
39.03 	0.052898 	4934 	0.051830
39.07 	0.054224 	4924 	0.053154
39.11 	0.046441 	4931 	0.045728
39.15 	0.047813 	4915 	0.047574
39.19 	0.052268 	4917 	0.052029
39.23 	0.041624 	4925 	0.040792
39.27 	0.047251 	4910 	0.046773
39.31 	0.052007 	4884 	0.051287
39.35 	0.042553 	4935 	0.041960
39.39 	0.049300 	4929 	0.048587
39.43 	0.045611 	4933 	0.045136
39.47 	0.044485 	4923 	0.043890
39.51 	0.043258 	4924 	0.043258
39.55 	0.049807 	4919 	0.049211
39.59 	0.050896 	4912 	0.049942
39.63 	0.048761 	4922 	0.048166
39.67 	0.052310 	4913 	0.051237
39.71 	0.047395 	4895 	0.047276
39.75 	0.050731 	4928 	0.050255
39.79 	0.048924 	4926 	0.048211
39.83 	0.047426 	4934 	0.046951
39.87 	0.052386 	4925 	0.052029
39.91 	0.042056 	4922 	0.041818
39.95 	0.047609 	4915 	0.047252
39.99 	0.045215 	4932 	0.044740
40.03 	0.048498 	4928 	0.047785
40.07 	0.050782 	4923 	0.050306
40.11 	0.046786 	4916 	0.046309
40.15 	0.045593 	4913 	0.044520
40.19 	0.045445 	4929 	0.044832
40.23 	0.048662 	4932 	0.048305
40.27 	0.050435 	4937 	0.049842
40.31 	0.046366 	4939 	0.045773
40.35 	0.050417 	4919 	0.050059
40.39 	0.046238 	4931 	0.046119
40.43 	0.043681 	4922 	0.043443
40.47 	0.044530 	4918 	0.043677
40.51 	0.047745 	4922 	0.047507
40.55 	0.045640 	4908 	0.045023
40.59 	0.046384 	4937 	0.045791
40.63 	0.047667 	4930 	0.046836
40.67 	0.045823 	4932 	0.045348
40.71 	0.044201 	4932 	0.043607
40.75 	0.049077 	4931 	0.047889
40.79 	0.044070 	4924 	0.043475
40.83 	0.045860 	4928 	0.045504
40.87 	0.042817 	4928 	0.042103
40.91 	0.047735 	4923 	0.047021
40.95 	0.051903 	4913 	0.050830
40.99 	0.041227 	4924 	0.040513
41.03 	0.048114 	4905 	0.047517
41.07 	0.046247 	4930 	0.045653
41.11 	0.044782 	4935 	0.044189
41.15 	0.048168 	4941 	0.047338
41.19 	0.037525 	4930 	0.037169
41.23 	0.039684 	4939 	0.039091
41.27 	0.045630 	4931 	0.044917
41.31 	0.044598 	4933 	0.043885
41.35 	0.041717 	4938 	0.041361
41.39 	0.036489 	4933 	0.036133
41.43 	0.043619 	4929 	0.043263
41.47 	0.044052 	4926 	0.043814
41.51 	0.044939 	4940 	0.044584
41.55 	0.049037 	4935 	0.048325
41.59 	0.041151 	4933 	0.041033
41.63 	0.040097 	4938 	0.039385
41.67 	0.046154 	4940 	0.045917
41.71 	0.042156 	4934 	0.041682
41.75 	0.041185 	4929 	0.040828
41.79 	0.041869 	4944 	0.041277
41.83 	0.044034 	4928 	0.043064
41.87 	0.045390 	4935 	0.044777
41.91 	0.044773 	4936 	0.043785
41.95 	0.046238 	4931 	0.045763
41.99 	0.040163 	4905 	0.039805
42.03 	0.042114 	4939 	0.041877
42.07 	0.044359 	4937 	0.044240
42.11 	0.043074 	4945 	0.042600
42.15 	0.042122 	4938 	0.041766
42.19 	0.046047 	4908 	0.045809
42.23 	0.042723 	4892 	0.042004
42.27 	0.039598 	4874 	0.039357
42.31 	0.045932 	4855 	0.045449
42.35 	0.043613 	4838 	0.042887
42.39 	0.038926 	4804 	0.038682
42.43 	0.040693 	4792 	0.040204
42.47 	0.031689 	4765 	0.031566
42.51 	0.039216 	4743 	0.038845
42.55 	0.042056 	4708 	0.041434
42.59 	0.040812 	4729 	0.040193
42.63 	0.043958 	4709 	0.043585
42.67 	0.037788 	4684 	0.037538
42.71 	0.045679 	4663 	0.045051
42.75 	0.040069 	4617 	0.039562
42.79 	0.042340 	4582 	0.041317
42.83 	0.042549 	4536 	0.042161
42.87 	0.041787 	4499 	0.041657
42.91 	0.036355 	4456 	0.036093
42.95 	0.045063 	4416 	0.044665
42.99 	0.036260 	4385 	0.035592
43.03 	0.040157 	4333 	0.039616
43.07 	0.034218 	4296 	0.033945
43.11 	0.043243 	4255 	0.042830
43.15 	0.043272 	4206 	0.042993
43.19 	0.037911 	4194 	0.037353
43.23 	0.044535 	4154 	0.043971
43.27 	0.043118 	4105 	0.042405
43.31 	0.041432 	4079 	0.041288
43.35 	0.042907 	4032 	0.041744
43.39 	0.041479 	4002 	0.040747
43.43 	0.040909 	3960 	0.040613
43.47 	0.038766 	3921 	0.038616
43.51 	0.045654 	3877 	0.045201
43.55 	0.036775 	2964 	0.036379
43.59 	0.044101 	1746 	0.044101
43.63 	0.047952 	1001 	0.047367
43.67 	0.041833 	502 	0.041833
43.71 	0.012552 	239 	0.012552
43.75 	0.000000 	16 	0.000000