File: Example_Data/25SC_s1_0009.000.dat
#F C:\frames\spec\25SC_s1_0009.000
#C title =s:9 frm:0 25SC_s1
#C wavelength =0.15406

#S 1  fr_average C:\frames\spec\25SC_s1_0009.000 C:\win32app\speccom\mask.axs chi 0 180 0 360 0.02
#C 2 theta =0.000000 to 180 deg
#C   q   =0.000000 to 81.568 nm^-1
#C  chi  =0.000000 to 360 deg
#C collumns:
#C  1 position (2theta or chi in degrees)
#C  2 average intensity (sum of all counts in the region divided with number of pixels)
#C  3 Number of pixels in region)
#C  4 error (sum of sqrt(intensity) for all pixels divided by number)
#N 4
#L TTh  Int  N_pix  Err
32.99 	0.032787 	61 	0.032787
33.03 	0.058231 	1391 	0.056968
33.07 	0.062927 	2050 	0.062070
33.11 	0.062040 	2579 	0.061585
33.15 	0.054685 	2999 	0.054099
33.19 	0.062837 	3342 	0.061259
33.23 	0.058757 	3523 	0.057925
33.27 	0.058127 	3630 	0.057158
33.31 	0.063115 	3660 	0.061674
33.35 	0.065512 	3694 	0.064243
33.39 	0.057120 	3729 	0.056020
33.43 	0.058495 	3761 	0.057249
33.47 	0.065561 	3798 	0.063710
33.51 	0.063172 	3815 	0.062404
33.55 	0.058808 	3843 	0.057564
33.59 	0.061340 	3880 	0.059830
33.63 	0.062516 	3919 	0.061171
33.67 	0.057410 	3954 	0.055929
33.71 	0.066918 	3975 	0.065887
33.75 	0.058515 	3999 	0.057343
33.79 	0.060629 	4041 	0.059904
33.83 	0.066173 	4050 	0.064726
33.87 	0.050596 	4111 	0.050453
33.91 	0.060738 	4149 	0.059749
33.95 	0.059316 	4181 	0.057915
33.99 	0.064048 	4200 	0.062653
34.03 	0.061027 	4244 	0.059647
34.07 	0.057873 	4268 	0.057186
34.11 	0.060205 	4302 	0.059524
34.15 	0.059340 	4331 	0.058528
34.19 	0.056167 	4362 	0.055093
34.23 	0.055543 	4393 	0.054721
34.27 	0.060606 	4422 	0.059679
34.31 	0.055855 	4458 	0.054803
34.35 	0.061998 	4484 	0.061084
34.39 	0.059973 	4502 	0.058521
34.43 	0.064552 	4539 	0.063390
34.47 	0.059233 	4592 	0.058575
34.51 	0.055363 	4606 	0.054218
34.55 	0.052768 	4643 	0.052137
34.59 	0.058396 	4675 	0.057268
34.63 	0.059660 	4710 	0.058116
34.67 	0.063067 	4741 	0.061831
34.71 	0.059799 	4766 	0.058569
34.75 	0.060524 	4808 	0.059549
34.79 	0.054312 	4824 	0.053219
34.83 	0.055121 	4862 	0.054278
34.87 	0.058956 	4868 	0.057512
34.91 	0.057149 	4882 	0.055949
34.95 	0.055215 	4890 	0.054496
34.99 	0.063508 	4897 	0.062432
35.03 	0.060692 	4943 	0.058559
35.07 	0.052834 	4940 	0.051530
35.11 	0.052961 	4947 	0.052014
35.15 	0.060361 	4937 	0.059530
35.19 	0.062728 	4942 	0.061898
35.23 	0.060061 	4945 	0.058758
35.27 	0.062854 	4948 	0.061788
35.31 	0.060004 	4933 	0.059173
35.35 	0.064751 	4942 	0.063072
35.39 	0.055005 	4945 	0.054176
35.43 	0.059801 	4933 	0.058851
35.47 	0.059623 	4931 	0.058316
35.51 	0.060495 	4926 	0.059663
35.55 	0.061072 	4945 	0.060006
35.59 	0.059454 	4945 	0.058388
35.63 	0.059680 	4943 	0.058021
35.67 	0.056050 	4942 	0.055220
35.71 	0.064614 	4937 	0.063309
35.75 	0.060028 	4931 	0.058722
35.79 	0.062652 	4932 	0.061682
35.83 	0.063890 	4946 	0.063298
35.87 	0.057079 	4923 	0.056127
35.91 	0.063122 	4927 	0.061576
35.95 	0.065284 	4917 	0.064092
35.99 	0.060741 	4939 	0.059674
36.03 	0.059680 	4943 	0.058851
36.07 	0.061146 	4939 	0.060079
36.11 	0.060661 	4929 	0.059354
36.15 	0.060944 	4939 	0.059995
36.19 	0.061741 	4940 	0.060199
36.23 	0.064032 	4935 	0.063083
36.27 	0.064772 	4925 	0.063939
36.31 	0.061688 	4928 	0.060381
36.35 	0.060661 	4929 	0.059473
36.39 	0.057712 	4921 	0.056760
36.43 	0.061891 	4928 	0.061059
36.47 	0.065032 	4936 	0.064083
36.51 	0.058990 	4933 	0.058040
36.55 	0.059062 	4927 	0.058349
36.59 	0.057502 	4939 	0.056434
36.63 	0.058203 	4931 	0.057490
36.67 	0.058418 	4930 	0.057329
36.71 	0.053851 	4921 	0.053137
36.75 	0.056634 	4944 	0.055568
36.79 	0.065434 	4921 	0.064005
36.83 	0.059410 	4915 	0.058695
36.87 	0.064118 	4944 	0.062933
36.91 	0.068002 	4941 	0.067054
36.95 	0.063450 	4933 	0.062500
36.99 	0.061196 	4935 	0.059771
37.03 	0.064785 	4924 	0.063952
37.07 	0.063627 	4935 	0.062084
37.11 	0.058156 	4935 	0.057206
37.15 	0.065390 	4909 	0.064316
37.19 	0.056853 	4925 	0.055782
37.23 	0.066287 	4918 	0.064620
37.27 	0.055578 	4894 	0.054980
37.31 	0.062411 	4935 	0.061580
37.35 	0.062171 	4938 	0.060985
37.39 	0.056175 	4931 	0.055462
37.43 	0.064071 	4932 	0.062646
37.47 	0.061676 	4929 	0.060012
37.51 	0.058180 	4933 	0.057348
37.55 	0.058012 	4930 	0.056686
37.59 	0.062055 	4915 	0.060863
37.63 	0.059972 	4919 	0.058781
37.67 	0.060359 	4904 	0.059523
37.71 	0.061879 	4929 	0.061522
37.75 	0.051822 	4940 	0.051110
37.79 	0.059229 	4930 	0.058279
37.83 	0.056504 	4920 	0.055552
37.87 	0.055679 	4939 	0.055086
37.91 	0.058824 	4930 	0.057754
37.95 	0.059134 	4921 	0.058063
37.99 	0.056189 	4912 	0.055543
38.03 	0.056223 	4909 	0.055269
38.07 	0.051742 	4909 	0.051384
38.11 	0.053293 	4935 	0.052225
38.15 	0.054087 	4918 	0.053134
38.19 	0.060446 	4930 	0.059852
38.23 	0.062778 	4938 	0.061829
38.27 	0.051927 	4930 	0.051214
38.31 	0.053785 	4927 	0.053310
38.35 	0.057021 	4928 	0.056308
38.39 	0.063557 	4909 	0.063199
38.43 	0.064890 	4916 	0.063798
38.47 	0.066028 	4907 	0.065789
38.51 	0.069343 	4932 	0.068393
38.55 	0.068679 	4936 	0.067492
38.59 	0.075142 	4924 	0.073834
38.63 	0.088546 	4924 	0.087118
38.67 	0.084059 	4937 	0.082260
38.71 	0.083063 	4924 	0.080921
38.75 	0.086462 	4927 	0.083946
38.79 	0.083502 	4934 	0.081326
38.83 	0.075828 	4919 	0.072792
38.87 	0.074119 	4911 	0.071714
38.91 	0.067714 	4903 	0.066638
38.95 	0.060594 	4918 	0.059383
38.99 	0.060361 	4937 	0.059411
39.03 	0.056952 	4934 	0.055883
39.07 	0.054021 	4924 	0.052831
39.11 	0.045832 	4931 	0.045120
39.15 	0.050458 	4915 	0.049981
39.19 	0.045353 	4917 	0.044638
39.23 	0.052792 	4925 	0.051840
39.27 	0.051527 	4910 	0.050573
39.31 	0.048935 	4884 	0.048456
39.35 	0.048227 	4935 	0.047515
39.39 	0.044228 	4929 	0.043396
39.43 	0.041760 	4933 	0.041403
39.47 	0.045704 	4923 	0.045109
39.51 	0.048335 	4924 	0.047859
39.55 	0.045131 	4919 	0.044298
39.59 	0.045806 	4912 	0.045210
39.63 	0.050792 	4922 	0.050316
39.67 	0.047832 	4913 	0.047594
39.71 	0.045761 	4895 	0.045282
39.75 	0.045252 	4928 	0.044657
39.79 	0.050548 	4926 	0.049954
39.83 	0.043170 	4934 	0.042932
39.87 	0.044264 	4925 	0.043907
39.91 	0.049167 	4922 	0.048334
39.95 	0.045982 	4915 	0.045505
39.99 	0.048662 	4932 	0.047830
40.03 	0.043831 	4928 	0.042880
40.07 	0.047938 	4923 	0.046867
40.11 	0.043938 	4916 	0.043561
40.15 	0.049257 	4913 	0.048780
40.19 	0.044431 	4929 	0.043956
40.23 	0.050284 	4932 	0.049552
40.27 	0.045169 	4937 	0.044932
40.31 	0.046771 	4939 	0.046771
40.35 	0.048181 	4919 	0.047466
40.39 	0.044413 	4931 	0.043581
40.43 	0.046932 	4922 	0.045861
40.47 	0.047174 	4918 	0.045983
40.51 	0.045510 	4922 	0.045034
40.55 	0.041565 	4908 	0.040968
40.59 	0.041726 	4937 	0.041132
40.63 	0.043408 	4930 	0.042814
40.67 	0.041363 	4932 	0.040769
40.71 	0.043187 	4932 	0.042099
40.75 	0.043602 	4931 	0.043364
40.79 	0.045695 	4924 	0.045219
40.83 	0.045657 	4928 	0.044825
40.87 	0.045455 	4928 	0.044979
40.91 	0.046516 	4923 	0.045564
40.95 	0.042947 	4913 	0.042113
40.99 	0.049959 	4924 	0.049602
41.03 	0.041998 	4905 	0.041401
41.07 	0.044016 	4930 	0.043541
41.11 	0.045998 	4935 	0.045642
41.15 	0.040478 	4941 	0.039885
41.19 	0.044016 	4930 	0.043660
41.23 	0.041709 	4939 	0.041353
41.27 	0.040357 	4931 	0.039882
41.31 	0.042773 	4933 	0.041942
41.35 	0.038275 	4938 	0.037800
41.39 	0.042773 	4933 	0.041942
41.43 	0.044837 	4929 	0.043886
41.47 	0.039586 	4926 	0.038635
41.51 	0.041700 	4940 	0.041108
41.55 	0.045390 	4935 	0.045034
41.59 	0.040949 	4933 	0.040355
41.63 	0.040907 	4938 	0.040077
41.67 	0.044332 	4940 	0.043858
41.71 	0.037698 	4934 	0.036985
41.75 	0.045242 	4929 	0.044767
41.79 	0.042476 	4944 	0.041883
41.83 	0.038149 	4928 	0.037793
41.87 	0.042756 	4935 	0.041569
41.91 	0.041126 	4936 	0.040770
41.95 	0.045427 	4931 	0.044833
41.99 	0.038532 	4905 	0.038293
42.03 	0.041304 	4939 	0.040829
42.07 	0.043954 	4937 	0.043479
42.11 	0.041254 	4945 	0.040780
42.15 	0.038477 	4938 	0.037765
42.19 	0.040750 	4908 	0.040392
42.23 	0.038635 	4892 	0.037796
42.27 	0.044112 	4874 	0.043511
42.31 	0.042225 	4855 	0.041621
42.35 	0.039479 	4838 	0.039116
42.39 	0.043922 	4804 	0.043678
42.43 	0.037771 	4792 	0.037649
42.47 	0.043652 	4765 	0.042914
42.51 	0.041535 	4743 	0.041041
42.55 	0.041206 	4708 	0.040833
42.59 	0.041658 	4729 	0.041039
42.63 	0.039711 	4709 	0.039462
42.67 	0.039283 	4684 	0.038907
42.71 	0.040746 	4663 	0.039993
42.75 	0.033788 	4617 	0.033408
42.79 	0.034919 	4582 	0.034536
42.83 	0.034392 	4536 	0.033746
42.87 	0.039342 	4499 	0.039082
42.91 	0.039048 	4456 	0.038786
42.95 	0.043252 	4416 	0.042323
42.99 	0.041505 	4385 	0.041104
43.03 	0.043388 	4333 	0.042577
43.07 	0.038175 	4296 	0.038175
43.11 	0.039718 	4255 	0.039167
43.15 	0.040418 	4206 	0.039861
43.19 	0.047449 	4194 	0.046611
43.23 	0.037313 	4154 	0.036608
43.27 	0.037028 	4105 	0.036600
43.31 	0.044619 	4079 	0.044475
43.35 	0.033978 	4032 	0.033688
43.39 	0.035732 	4002 	0.035000
43.43 	0.040909 	3960 	0.040317
43.47 	0.039786 	3921 	0.039188
43.51 	0.041011 	3877 	0.041011
43.55 	0.037787 	2964 	0.037194
43.59 	0.035510 	1746 	0.035510
43.63 	0.029970 	1001 	0.029970
43.67 	0.041833 	502 	0.041833
43.71 	0.033473 	239 	0.031022
43.75 	0.062500 	16 	0.062500