File: Example_Data/25SC_s1_0024.000.dat
#F C:\frames\spec\25SC_s1_0024.000
#C title =s:24 frm:0 25SC_s1
#C wavelength =0.15406

#S 1  fr_average C:\frames\spec\25SC_s1_0024.000 C:\win32app\speccom\mask.axs chi 0 180 0 360 0.02
#C 2 theta =0.000000 to 180 deg
#C   q   =0.000000 to 81.568 nm^-1
#C  chi  =0.000000 to 360 deg
#C collumns:
#C  1 position (2theta or chi in degrees)
#C  2 average intensity (sum of all counts in the region divided with number of pixels)
#C  3 Number of pixels in region)
#C  4 error (sum of sqrt(intensity) for all pixels divided by number)
#N 4
#L TTh  Int  N_pix  Err
32.99 	0.049180 	61 	0.049180
33.03 	0.060388 	1391 	0.059546
33.07 	0.061951 	2050 	0.059618
33.11 	0.069794 	2579 	0.067977
33.15 	0.061020 	2999 	0.059458
33.19 	0.066427 	3342 	0.065025
33.23 	0.067272 	3523 	0.066773
33.27 	0.057300 	3630 	0.055848
33.31 	0.060383 	3660 	0.059742
33.35 	0.050623 	3694 	0.049988
33.39 	0.059265 	3729 	0.057800
33.43 	0.064079 	3761 	0.062988
33.47 	0.057135 	3798 	0.056364
33.51 	0.052687 	3815 	0.052073
33.55 	0.059068 	3843 	0.057697
33.59 	0.058505 	3880 	0.057146
33.63 	0.062006 	3919 	0.060511
33.67 	0.057663 	3954 	0.056774
33.71 	0.066415 	3975 	0.064352
33.75 	0.055264 	3999 	0.054385
33.79 	0.061866 	4041 	0.060851
33.83 	0.056543 	4050 	0.055675
33.87 	0.054731 	4111 	0.053591
33.91 	0.055194 	4149 	0.054347
33.95 	0.057881 	4181 	0.056900
33.99 	0.064762 	4200 	0.062949
34.03 	0.059849 	4244 	0.059021
34.07 	0.062793 	4268 	0.061558
34.11 	0.056253 	4302 	0.054891
34.15 	0.058647 	4331 	0.057294
34.19 	0.053187 	4362 	0.052247
34.23 	0.053494 	4393 	0.052827
34.27 	0.059249 	4422 	0.058189
34.31 	0.054284 	4458 	0.053496
34.35 	0.055308 	4484 	0.054524
34.39 	0.055309 	4502 	0.054788
34.43 	0.060806 	4539 	0.060161
34.47 	0.055749 	4592 	0.054984
34.51 	0.054494 	4606 	0.053477
34.55 	0.055568 	4643 	0.054558
34.59 	0.050481 	4675 	0.049584
34.63 	0.054989 	4710 	0.054492
34.67 	0.050411 	4741 	0.049794
34.71 	0.053924 	4766 	0.053063
34.75 	0.055116 	4808 	0.053776
34.79 	0.053068 	4824 	0.052218
34.83 	0.061909 	4862 	0.060202
34.87 	0.051767 	4868 	0.051045
34.91 	0.054691 	4882 	0.053611
34.95 	0.060941 	4890 	0.060082
34.99 	0.056157 	4897 	0.055200
35.03 	0.056646 	4943 	0.056409
35.07 	0.052834 	4940 	0.051866
35.11 	0.050940 	4947 	0.050348
35.15 	0.053879 	4937 	0.053523
35.19 	0.062525 	4942 	0.061340
35.23 	0.057432 	4945 	0.056228
35.27 	0.059418 	4948 	0.058234
35.31 	0.059599 	4933 	0.058649
35.35 	0.054229 	4942 	0.053755
35.39 	0.055207 	4945 	0.053904
35.43 	0.057977 	4933 	0.057146
35.47 	0.051308 	4931 	0.050239
35.51 	0.058465 	4926 	0.057276
35.55 	0.049949 	4945 	0.049101
35.59 	0.052781 	4945 	0.052070
35.63 	0.059883 	4943 	0.058698
35.67 	0.050992 	4942 	0.050280
35.71 	0.058132 	4937 	0.057045
35.75 	0.058406 	4931 	0.057456
35.79 	0.062652 	4932 	0.061227
35.83 	0.048726 	4946 	0.047759
35.87 	0.055454 	4923 	0.054978
35.91 	0.059671 	4927 	0.058839
35.95 	0.061420 	4917 	0.059513
35.99 	0.056692 	4939 	0.055624
36.03 	0.059478 	4943 	0.058056
36.07 	0.062968 	4939 	0.062138
36.11 	0.059444 	4929 	0.058850
36.15 	0.058514 	4939 	0.057565
36.19 	0.059109 	4940 	0.057805
36.23 	0.053901 	4935 	0.052832
36.27 	0.054213 	4925 	0.053618
36.31 	0.057833 	4928 	0.057120
36.35 	0.058633 	4929 	0.057563
36.39 	0.061979 	4921 	0.061146
36.43 	0.054789 	4928 	0.053818
36.47 	0.055916 	4936 	0.055560
36.51 	0.059193 	4933 	0.057768
36.55 	0.053582 	4927 	0.053107
36.59 	0.064993 	4939 	0.063807
36.63 	0.056175 	4931 	0.055581
36.67 	0.057201 	4930 	0.056369
36.71 	0.057509 	4921 	0.056080
36.75 	0.056432 	4944 	0.055958
36.79 	0.049787 	4921 	0.048934
36.83 	0.052289 	4915 	0.051574
36.87 	0.058657 	4944 	0.058065
36.91 	0.056466 	4941 	0.056111
36.95 	0.055342 	4933 	0.054510
36.99 	0.060588 	4935 	0.059757
37.03 	0.057880 	4924 	0.056809
37.07 	0.056940 	4935 	0.055872
37.11 	0.060790 	4935 	0.060059
37.15 	0.054390 	4909 	0.053555
37.19 	0.061726 	4925 	0.061131
37.23 	0.058967 	4918 	0.058133
37.27 	0.060482 	4894 	0.059405
37.31 	0.057345 	4935 	0.056752
37.35 	0.055691 	4938 	0.054979
37.39 	0.058406 	4931 	0.057931
37.43 	0.051095 	4932 	0.050244
37.47 	0.061270 	4929 	0.060795
37.51 	0.056761 	4933 	0.055197
37.55 	0.053753 	4930 	0.052327
37.59 	0.057172 	4915 	0.056099
37.63 	0.060175 	4919 	0.059341
37.67 	0.059135 	4904 	0.057224
37.71 	0.051938 	4929 	0.051224
37.75 	0.053036 	4940 	0.052088
37.79 	0.060041 	4930 	0.058615
37.83 	0.060366 	4920 	0.059394
37.87 	0.057299 	4939 	0.055500
37.91 	0.046653 	4930 	0.046178
37.95 	0.054867 	4921 	0.054629
37.99 	0.057003 	4912 	0.056645
38.03 	0.058260 	4909 	0.057167
38.07 	0.055612 	4909 	0.054777
38.11 	0.053495 	4935 	0.052665
38.15 	0.057544 	4918 	0.056710
38.19 	0.056998 	4930 	0.055929
38.23 	0.063589 	4938 	0.062758
38.27 	0.057809 	4930 	0.056621
38.31 	0.065557 	4927 	0.064606
38.35 	0.068791 	4928 	0.067245
38.39 	0.071501 	4909 	0.070069
38.43 	0.081367 	4916 	0.079660
38.47 	0.074180 	4907 	0.072389
38.51 	0.077859 	4932 	0.075840
38.55 	0.085292 	4936 	0.082760
38.59 	0.088749 	4924 	0.086489
38.63 	0.077376 	4924 	0.075334
38.67 	0.077983 	4937 	0.076321
38.71 	0.076158 	4924 	0.073709
38.75 	0.077938 	4927 	0.075778
38.79 	0.063640 	4934 	0.061939
38.83 	0.072169 	4919 	0.069887
38.87 	0.062105 	4911 	0.061151
38.91 	0.056700 	4903 	0.055505
38.95 	0.059577 	4918 	0.058743
38.99 	0.058132 	4937 	0.057183
39.03 	0.053709 	4934 	0.052878
39.07 	0.055037 	4924 	0.053609
39.11 	0.050091 	4931 	0.049378
39.15 	0.045575 	4915 	0.044740
39.19 	0.049217 	4917 	0.048383
39.23 	0.047107 	4925 	0.046274
39.27 	0.049695 	4910 	0.049098
39.31 	0.053030 	4884 	0.052551
39.35 	0.050253 	4935 	0.049778
39.39 	0.041996 	4929 	0.041164
39.43 	0.049260 	4933 	0.048666
39.47 	0.049766 	4923 	0.049052
39.51 	0.042039 	4924 	0.041563
39.55 	0.048587 	4919 	0.047754
39.59 	0.045195 	4912 	0.044003
39.63 	0.043681 	4922 	0.043443
39.67 	0.048850 	4913 	0.048015
39.71 	0.048008 	4895 	0.047170
39.75 	0.049310 	4928 	0.048597
39.79 	0.051360 	4926 	0.051003
39.83 	0.042967 	4934 	0.042730
39.87 	0.042437 	4925 	0.042199
39.91 	0.046526 	4922 	0.046050
39.95 	0.041099 	4915 	0.040741
39.99 	0.044201 	4932 	0.043726
40.03 	0.044643 	4928 	0.044286
40.07 	0.044282 	4923 	0.043687
40.11 	0.044142 	4916 	0.043645
40.15 	0.041930 	4913 	0.041572
40.19 	0.048489 	4929 	0.047419
40.23 	0.042174 	4932 	0.041936
40.27 	0.044764 	4937 	0.044033
40.31 	0.039279 	4939 	0.039042
40.35 	0.043708 	4919 	0.043232
40.39 	0.044818 	4931 	0.044225
40.43 	0.039415 	4922 	0.038939
40.47 	0.039447 	4918 	0.039090
40.51 	0.041040 	4922 	0.040326
40.55 	0.042584 	4908 	0.041629
40.59 	0.043751 	4937 	0.043514
40.63 	0.037120 	4930 	0.036526
40.67 	0.041971 	4932 	0.041852
40.71 	0.040349 	4932 	0.039992
40.75 	0.044818 	4931 	0.044106
40.79 	0.044273 	4924 	0.043202
40.83 	0.044846 	4928 	0.044251
40.87 	0.044237 	4928 	0.043524
40.91 	0.041438 	4923 	0.041081
40.95 	0.043558 	4913 	0.042485
40.99 	0.038790 	4924 	0.038056
41.03 	0.037920 	4905 	0.037443
41.07 	0.041176 	4930 	0.040345
41.11 	0.042756 	4935 	0.042756
41.15 	0.046549 	4941 	0.045957
41.19 	0.042799 	4930 	0.042324
41.23 	0.040899 	4939 	0.040069
41.27 	0.039343 	4931 	0.038749
41.31 	0.034056 	4933 	0.033700
41.35 	0.041717 	4938 	0.041480
41.39 	0.041760 	4933 	0.041047
41.43 	0.037330 	4929 	0.037092
41.47 	0.042022 	4926 	0.041427
41.51 	0.038057 	4940 	0.037582
41.55 	0.037082 	4935 	0.037082
41.59 	0.037705 	4933 	0.036874
41.63 	0.041312 	4938 	0.040956
41.67 	0.045547 	4940 	0.045072
41.71 	0.038711 	4934 	0.038355
41.75 	0.043214 	4929 	0.042382
41.79 	0.045510 	4944 	0.044206
41.83 	0.042614 	4928 	0.042376
41.87 	0.033637 	4935 	0.033281
41.91 	0.040519 	4936 	0.040281
41.95 	0.040763 	4931 	0.040169
41.99 	0.043833 	4905 	0.042877
42.03 	0.037052 	4939 	0.036340
42.07 	0.035649 	4937 	0.035056
42.11 	0.048534 	4945 	0.047942
42.15 	0.044552 	4938 	0.043959
42.19 	0.041972 	4908 	0.041376
42.23 	0.041905 	4892 	0.041306
42.27 	0.043291 	4874 	0.043171
42.31 	0.031514 	4855 	0.030790
42.35 	0.039686 	4838 	0.038959
42.39 	0.043714 	4804 	0.043104
42.43 	0.040275 	4792 	0.040153
42.47 	0.036936 	4765 	0.036690
42.51 	0.040481 	4743 	0.040357
42.55 	0.041844 	4708 	0.041470
42.59 	0.035525 	4729 	0.035525
42.63 	0.042684 	4709 	0.042187
42.67 	0.042699 	4684 	0.042073
42.71 	0.038816 	4663 	0.038314
42.75 	0.038986 	4617 	0.038733
42.79 	0.036010 	4582 	0.035755
42.83 	0.034612 	4536 	0.034225
42.87 	0.044010 	4499 	0.043229
42.91 	0.037253 	4456 	0.037122
42.95 	0.032382 	4416 	0.031984
42.99 	0.036488 	4385 	0.035954
43.03 	0.036234 	4333 	0.035963
43.07 	0.037477 	4296 	0.036659
43.11 	0.039248 	4255 	0.039248
43.15 	0.031384 	4206 	0.031384
43.19 	0.039580 	4194 	0.038882
43.23 	0.041165 	4154 	0.040460
43.27 	0.036297 	4105 	0.036154
43.31 	0.035793 	4079 	0.035195
43.35 	0.040923 	4032 	0.040632
43.39 	0.033733 	4002 	0.033587
43.43 	0.039646 	3960 	0.039351
43.47 	0.037235 	3921 	0.037086
43.51 	0.038174 	3877 	0.038023
43.55 	0.037112 	2964 	0.036519
43.59 	0.038946 	1746 	0.038275
43.63 	0.031968 	1001 	0.031968
43.67 	0.025896 	502 	0.025896
43.71 	0.029289 	239 	0.029289
43.75 	0.062500 	16 	0.062500