File: Example_Data/25SC_s1_0016.001.dat
#F C:\frames\spec\25SC_s1_0016.001
#C title =s:16 frm:1 25SC_s1
#C wavelength =0.15406

#S 1  fr_average C:\frames\spec\25SC_s1_0016.001 C:\win32app\speccom\mask.axs chi 0 180 0 360 0.02
#C 2 theta =0.000000 to 180 deg
#C   q   =0.000000 to 81.568 nm^-1
#C  chi  =0.000000 to 360 deg
#C collumns:
#C  1 position (2theta or chi in degrees)
#C  2 average intensity (sum of all counts in the region divided with number of pixels)
#C  3 Number of pixels in region)
#C  4 error (sum of sqrt(intensity) for all pixels divided by number)
#N 4
#L TTh  Int  N_pix  Err
32.99 	0.032787 	61 	0.032787
33.03 	0.063983 	1391 	0.063562
33.07 	0.061951 	2050 	0.060522
33.11 	0.058550 	2579 	0.056960
33.15 	0.065022 	2999 	0.062809
33.19 	0.052364 	3342 	0.051663
33.23 	0.055918 	3523 	0.053590
33.27 	0.064463 	3630 	0.063468
33.31 	0.056011 	3660 	0.055051
33.35 	0.056578 	3694 	0.055627
33.39 	0.053097 	3729 	0.051684
33.43 	0.055304 	3761 	0.054033
33.47 	0.054502 	3798 	0.053577
33.51 	0.063958 	3815 	0.062576
33.55 	0.060370 	3843 	0.059455
33.59 	0.057732 	3880 	0.056524
33.63 	0.058688 	3919 	0.057642
33.67 	0.060445 	3954 	0.059408
33.71 	0.056855 	3975 	0.055824
33.75 	0.055264 	3999 	0.054385
33.79 	0.055679 	4041 	0.054954
33.83 	0.062716 	4050 	0.061848
33.87 	0.062758 	4111 	0.061595
33.91 	0.053989 	4149 	0.053424
33.95 	0.059316 	4181 	0.057915
33.99 	0.056905 	4200 	0.055789
34.03 	0.059378 	4244 	0.058550
34.07 	0.063261 	4268 	0.061340
34.11 	0.058113 	4302 	0.057296
34.15 	0.053336 	4331 	0.052525
34.19 	0.064649 	4362 	0.063306
34.23 	0.057592 	4393 	0.056525
34.27 	0.058797 	4422 	0.057737
34.31 	0.057425 	4458 	0.056636
34.35 	0.061775 	4484 	0.060469
34.39 	0.050422 	4502 	0.050032
34.43 	0.059044 	4539 	0.058011
34.47 	0.055749 	4592 	0.054729
34.51 	0.055145 	4606 	0.054382
34.55 	0.058367 	4643 	0.057737
34.59 	0.059465 	4675 	0.058463
34.63 	0.057325 	4710 	0.055667
34.67 	0.053153 	4741 	0.051918
34.71 	0.060218 	4766 	0.059235
34.75 	0.056988 	4808 	0.056379
34.79 	0.055763 	4824 	0.054771
34.83 	0.066434 	4862 	0.064747
34.87 	0.056286 	4868 	0.055203
34.91 	0.054691 	4882 	0.054211
34.95 	0.059509 	4890 	0.058551
34.99 	0.056565 	4897 	0.055608
35.03 	0.051790 	4943 	0.051435
35.07 	0.059717 	4940 	0.058887
35.11 	0.053770 	4947 	0.052467
35.15 	0.051651 	4937 	0.050702
35.19 	0.056860 	4942 	0.055911
35.23 	0.056825 	4945 	0.055877
35.27 	0.054568 	4948 	0.054094
35.31 	0.060004 	4933 	0.058342
35.35 	0.052408 	4942 	0.051815
35.39 	0.057432 	4945 	0.056603
35.43 	0.067910 	4933 	0.066485
35.47 	0.051714 	4931 	0.050763
35.51 	0.059886 	4926 	0.059054
35.55 	0.060667 	4945 	0.059582
35.59 	0.057634 	4945 	0.056923
35.63 	0.057657 	4943 	0.056591
35.67 	0.050587 	4942 	0.049619
35.71 	0.056512 	4937 	0.055187
35.75 	0.054553 	4931 	0.053959
35.79 	0.056569 	4932 	0.055500
35.83 	0.057825 	4946 	0.056522
35.87 	0.054641 	4923 	0.053809
35.91 	0.062716 	4927 	0.062359
35.95 	0.056539 	4917 	0.055943
35.99 	0.057704 	4939 	0.056854
36.03 	0.065750 	4943 	0.064327
36.07 	0.061146 	4939 	0.059822
36.11 	0.057821 	4929 	0.056989
36.15 	0.051225 	4939 	0.050513
36.19 	0.057895 	4940 	0.057420
36.23 	0.065653 	4935 	0.064704
36.27 	0.056041 	4925 	0.055188
36.31 	0.053977 	4928 	0.053007
36.35 	0.061879 	4929 	0.060928
36.39 	0.062792 	4921 	0.061344
36.43 	0.060877 	4928 	0.059450
36.47 	0.056929 	4936 	0.055979
36.51 	0.057977 	4933 	0.056414
36.55 	0.061295 	4927 	0.060463
36.59 	0.055679 	4939 	0.054730
36.63 	0.057392 	4931 	0.056323
36.67 	0.058012 	4930 	0.057299
36.71 	0.056899 	4921 	0.056423
36.75 	0.056230 	4944 	0.055163
36.79 	0.053038 	4921 	0.051848
36.83 	0.059817 	4915 	0.059340
36.87 	0.059264 	4944 	0.058434
36.91 	0.059502 	4941 	0.058672
36.95 	0.051085 	4933 	0.050491
36.99 	0.053090 	4935 	0.052022
37.03 	0.051990 	4924 	0.051039
37.07 	0.051469 	4935 	0.050638
37.11 	0.058967 	4935 	0.057661
37.15 	0.054797 	4909 	0.053843
37.19 	0.058477 	4925 	0.057407
37.23 	0.054494 	4918 	0.053144
37.27 	0.053944 	4894 	0.052986
37.31 	0.056738 	4935 	0.056144
37.35 	0.063183 	4938 	0.062116
37.39 	0.058812 	4931 	0.057742
37.43 	0.056975 	4932 	0.056381
37.47 	0.059241 	4929 	0.057914
37.51 	0.060207 	4933 	0.059494
37.55 	0.059838 	4930 	0.058531
37.59 	0.054120 	4915 	0.052451
37.63 	0.058142 	4919 	0.057427
37.67 	0.059339 	4904 	0.058125
37.71 	0.057821 	4929 	0.056989
37.75 	0.057490 	4940 	0.056541
37.79 	0.049899 	4930 	0.049186
37.83 	0.051423 	4920 	0.050589
37.87 	0.057502 	4939 	0.057027
37.91 	0.056187 	4930 	0.055117
37.95 	0.055273 	4921 	0.053944
37.99 	0.055985 	4912 	0.055270
38.03 	0.054186 	4909 	0.053470
38.07 	0.054594 	4909 	0.054116
38.11 	0.062006 	4935 	0.061175
38.15 	0.047784 	4918 	0.046950
38.19 	0.054361 	4930 	0.053648
38.23 	0.050628 	4938 	0.050035
38.27 	0.051318 	4930 	0.050487
38.31 	0.056424 	4927 	0.055116
38.35 	0.046469 	4928 	0.045756
38.39 	0.054186 	4909 	0.053112
38.43 	0.058991 	4916 	0.058157
38.47 	0.061545 	4907 	0.060828
38.51 	0.062449 	4932 	0.061024
38.55 	0.069895 	4936 	0.068945
38.59 	0.069659 	4924 	0.068469
38.63 	0.080016 	4924 	0.078113
38.67 	0.078995 	4937 	0.077433
38.71 	0.073924 	4924 	0.072258
38.75 	0.076517 	4927 	0.074615
38.79 	0.066883 	4934 	0.065933
38.83 	0.071559 	4919 	0.070487
38.87 	0.069232 	4911 	0.068040
38.91 	0.062819 	4903 	0.062102
38.95 	0.060187 	4918 	0.059472
38.99 	0.059348 	4937 	0.059110
39.03 	0.051480 	4934 	0.050767
39.07 	0.055240 	4924 	0.054526
39.11 	0.053336 	4931 	0.052861
39.15 	0.052899 	4915 	0.052065
39.19 	0.045556 	4917 	0.044961
39.23 	0.045482 	4925 	0.045006
39.27 	0.047658 	4910 	0.046942
39.31 	0.040336 	4884 	0.039376
39.35 	0.040122 	4935 	0.040003
39.39 	0.049097 	4929 	0.048384
39.43 	0.047030 	4933 	0.046555
39.47 	0.048345 	4923 	0.047274
39.51 	0.044273 	4924 	0.043421
39.55 	0.044521 	4919 	0.043926
39.59 	0.044381 	4912 	0.044381
39.63 	0.046323 	4922 	0.045609
39.67 	0.042337 	4913 	0.041383
39.71 	0.043309 	4895 	0.042831
39.75 	0.043425 	4928 	0.042950
39.79 	0.046894 	4926 	0.046299
39.83 	0.044994 	4934 	0.043925
39.87 	0.049137 	4925 	0.048067
39.91 	0.044291 	4922 	0.044053
39.95 	0.043540 	4915 	0.043302
39.99 	0.049067 	4932 	0.048473
40.03 	0.049716 	4928 	0.048884
40.07 	0.042454 	4923 	0.041859
40.11 	0.046379 	4916 	0.045545
40.15 	0.040505 	4913 	0.039789
40.19 	0.041591 	4929 	0.041353
40.23 	0.047040 	4932 	0.046446
40.27 	0.038485 	4937 	0.038129
40.31 	0.040089 	4939 	0.039259
40.35 	0.038626 	4919 	0.038030
40.39 	0.046644 	4931 	0.045931
40.43 	0.042259 	4922 	0.041545
40.47 	0.046157 	4918 	0.045800
40.51 	0.040634 	4922 	0.040158
40.55 	0.042380 	4908 	0.041783
40.59 	0.042941 	4937 	0.042585
40.63 	0.045639 	4930 	0.045639
40.67 	0.049270 	4932 	0.048676
40.71 	0.041160 	4932 	0.040566
40.75 	0.044210 	4931 	0.043854
40.79 	0.041633 	4924 	0.041276
40.83 	0.046469 	4928 	0.046113
40.87 	0.038149 	4928 	0.037555
40.91 	0.039204 	4923 	0.039085
40.95 	0.042337 	4913 	0.042098
40.99 	0.038180 	4924 	0.037704
41.03 	0.044037 	4905 	0.043081
41.07 	0.039351 	4930 	0.038638
41.11 	0.039919 	4935 	0.039444
41.15 	0.046347 	4941 	0.045517
41.19 	0.044828 	4930 	0.044590
41.23 	0.043531 	4939 	0.043057
41.27 	0.046441 	4931 	0.045491
41.31 	0.038719 	4933 	0.038481
41.35 	0.044350 	4938 	0.043875
41.39 	0.036894 	4933 	0.036301
41.43 	0.038750 	4929 	0.038275
41.47 	0.043443 	4926 	0.042729
41.51 	0.038866 	4940 	0.038511
41.55 	0.038298 	4935 	0.037942
41.59 	0.035678 	4933 	0.035203
41.63 	0.040097 	4938 	0.039741
41.67 	0.045344 	4940 	0.044751
41.71 	0.038508 	4934 	0.038152
41.75 	0.037939 	4929 	0.037463
41.79 	0.038835 	4944 	0.038479
41.83 	0.044034 	4928 	0.043559
41.87 	0.038298 	4935 	0.037823
41.91 	0.037885 	4936 	0.037410
41.95 	0.042385 	4931 	0.042266
41.99 	0.038940 	4905 	0.038701
42.03 	0.039077 	4939 	0.038365
42.07 	0.040308 	4937 	0.039833
42.11 	0.037209 	4945 	0.037091
42.15 	0.038477 	4938 	0.038003
42.19 	0.039324 	4908 	0.038846
42.23 	0.036795 	4892 	0.036196
42.27 	0.033648 	4874 	0.033287
42.31 	0.038105 	4855 	0.037984
42.35 	0.047747 	4838 	0.046899
42.39 	0.039134 	4804 	0.038382
42.43 	0.040693 	4792 	0.040448
42.47 	0.041973 	4765 	0.041604
42.51 	0.036896 	4743 	0.036402
42.55 	0.040144 	4708 	0.039522
42.59 	0.041658 	4729 	0.041410
42.63 	0.044383 	4709 	0.044134
42.67 	0.042058 	4684 	0.041683
42.71 	0.034527 	4663 	0.034527
42.75 	0.036387 	4617 	0.036260
42.79 	0.041467 	4582 	0.040955
42.83 	0.039683 	4536 	0.039424
42.87 	0.038008 	4499 	0.037488
42.91 	0.036131 	4456 	0.035342
42.95 	0.033741 	4416 	0.033210
42.99 	0.039225 	4385 	0.038690
43.03 	0.040157 	4333 	0.039616
43.07 	0.031425 	4296 	0.031152
43.11 	0.033373 	4255 	0.032959
43.15 	0.033048 	4206 	0.032491
43.19 	0.036242 	4194 	0.035963
43.23 	0.039721 	4154 	0.039298
43.27 	0.038733 	4105 	0.038162
43.31 	0.038980 	4079 	0.038837
43.35 	0.038938 	4032 	0.038648
43.39 	0.034483 	4002 	0.033873
43.43 	0.036869 	3960 	0.036573
43.47 	0.038256 	3921 	0.038256
43.51 	0.040753 	3877 	0.040300
43.55 	0.032726 	2964 	0.032528
43.59 	0.034364 	1746 	0.033693
43.63 	0.039960 	1001 	0.039960
43.67 	0.041833 	502 	0.041833
43.71 	0.029289 	239 	0.029289
43.75 	0.062500 	16 	0.062500