File: Example_Data/25SC_s1_0042.003.dat
#F C:\frames\spec\25SC_s1_0042.003
#C title =s:42 frm:3 25SC_s1
#C wavelength =0.15406

#S 1  fr_average C:\frames\spec\25SC_s1_0042.003 C:\win32app\speccom\mask.axs chi 0 180 0 360 0.02
#C 2 theta =0.000000 to 180 deg
#C   q   =0.000000 to 81.568 nm^-1
#C  chi  =0.000000 to 360 deg
#C collumns:
#C  1 position (2theta or chi in degrees)
#C  2 average intensity (sum of all counts in the region divided with number of pixels)
#C  3 Number of pixels in region)
#C  4 error (sum of sqrt(intensity) for all pixels divided by number)
#N 4
#L TTh  Int  N_pix  Err
32.99 	0.016393 	61 	0.016393
33.03 	0.072610 	1391 	0.071767
33.07 	0.057073 	2050 	0.055930
33.11 	0.061652 	2579 	0.060516
33.15 	0.060353 	2999 	0.060158
33.19 	0.062537 	3342 	0.061310
33.23 	0.057054 	3523 	0.056389
33.27 	0.061157 	3630 	0.060027
33.31 	0.058197 	3660 	0.057557
33.35 	0.059015 	3694 	0.057429
33.39 	0.055243 	3729 	0.054457
33.43 	0.057166 	3761 	0.056231
33.47 	0.065561 	3798 	0.064327
33.51 	0.064220 	3815 	0.063145
33.55 	0.059068 	3843 	0.057849
33.59 	0.060309 	3880 	0.059554
33.63 	0.052820 	3919 	0.052072
33.67 	0.055134 	3954 	0.053924
33.71 	0.052327 	3975 	0.051443
33.75 	0.066767 	3999 	0.065302
33.79 	0.053452 	4041 	0.052582
33.83 	0.061975 	4050 	0.061107
33.87 	0.059596 	4111 	0.059169
33.91 	0.059291 	4149 	0.058562
33.95 	0.058120 	4181 	0.057700
33.99 	0.060238 	4200 	0.059401
34.03 	0.063148 	4244 	0.061906
34.07 	0.059278 	4268 	0.058318
34.11 	0.063691 	4302 	0.062466
34.15 	0.057492 	4331 	0.056005
34.19 	0.057772 	4362 	0.056944
34.23 	0.049169 	4393 	0.048636
34.27 	0.057666 	4422 	0.056077
34.31 	0.067070 	4458 	0.065998
34.35 	0.057315 	4484 	0.056270
34.39 	0.053976 	4502 	0.053065
34.43 	0.059044 	4539 	0.058786
34.47 	0.063371 	4592 	0.062351
34.51 	0.053626 	4606 	0.052735
34.55 	0.055568 	4643 	0.054558
34.59 	0.060963 	4675 	0.060085
34.63 	0.052866 	4710 	0.051996
34.67 	0.055684 	4741 	0.054820
34.71 	0.053084 	4766 	0.052224
34.75 	0.057196 	4808 	0.056465
34.79 	0.060531 	4824 	0.059296
34.83 	0.057384 	4862 	0.056058
34.87 	0.048685 	4868 	0.047963
34.91 	0.058173 	4882 	0.057573
34.95 	0.065031 	4890 	0.063953
34.99 	0.056769 	4897 	0.056171
35.03 	0.064940 	4943 	0.063755
35.07 	0.055061 	4940 	0.054586
35.11 	0.054174 	4947 	0.053701
35.15 	0.058538 	4937 	0.057944
35.19 	0.055038 	4942 	0.053735
35.23 	0.057027 	4945 	0.055961
35.27 	0.057801 	4948 	0.057091
35.31 	0.060004 	4933 	0.059054
35.35 	0.055443 	4942 	0.054613
35.39 	0.062083 	4945 	0.061116
35.43 	0.058382 	4933 	0.056344
35.47 	0.057189 	4931 	0.056120
35.51 	0.054811 	4926 	0.054217
35.55 	0.058038 	4945 	0.057683
35.59 	0.063296 	4945 	0.062704
35.63 	0.055230 	4943 	0.054400
35.67 	0.054634 	4942 	0.053310
35.71 	0.055904 	4937 	0.054461
35.75 	0.059826 	4931 	0.058400
35.79 	0.059002 	4932 	0.058527
35.83 	0.057825 	4946 	0.056759
35.87 	0.053016 	4923 	0.052540
35.91 	0.055409 	4927 	0.054339
35.95 	0.054912 	4917 	0.054078
35.99 	0.051630 	4939 	0.050918
36.03 	0.060894 	4943 	0.059472
36.07 	0.057906 	4939 	0.056958
36.11 	0.062284 	4929 	0.061571
36.15 	0.047378 	4939 	0.046311
36.19 	0.053036 	4940 	0.052444
36.23 	0.059980 	4935 	0.058892
36.27 	0.048325 	4925 	0.047017
36.31 	0.057021 	4928 	0.056189
36.35 	0.051532 	4929 	0.050700
36.39 	0.055883 	4921 	0.054554
36.43 	0.057630 	4928 	0.056679
36.47 	0.051661 	4936 	0.050949
36.51 	0.052301 	4933 	0.051826
36.55 	0.052973 	4927 	0.052022
36.59 	0.060539 	4939 	0.059333
36.63 	0.050294 	4931 	0.049819
36.67 	0.045842 	4930 	0.044891
36.71 	0.054664 	4921 	0.053473
36.75 	0.052791 	4944 	0.051962
36.79 	0.059134 	4921 	0.058777
36.83 	0.047609 	4915 	0.046537
36.87 	0.052994 	4944 	0.052283
36.91 	0.059097 	4941 	0.058267
36.95 	0.051895 	4933 	0.050945
36.99 	0.057953 	4935 	0.056766
37.03 	0.057677 	4924 	0.056606
37.07 	0.051874 	4935 	0.051281
37.11 	0.056940 	4935 	0.055991
37.15 	0.051334 	4909 	0.050499
37.19 	0.057056 	4925 	0.055866
37.23 	0.050020 	4918 	0.049425
37.27 	0.050061 	4894 	0.049343
37.31 	0.048835 	4935 	0.048241
37.35 	0.049615 	4938 	0.048548
37.39 	0.046441 	4931 	0.045847
37.43 	0.050689 	4932 	0.049977
37.47 	0.051938 	4929 	0.050749
37.51 	0.056152 	4933 	0.055677
37.55 	0.050710 	4930 	0.049621
37.59 	0.050051 	4915 	0.049574
37.63 	0.051027 	4919 	0.050669
37.67 	0.055873 	4904 	0.054439
37.71 	0.051126 	4929 	0.050413
37.75 	0.042510 	4940 	0.042154
37.79 	0.053753 	4930 	0.052327
37.83 	0.051829 	4920 	0.050877
37.87 	0.045556 	4939 	0.044844
37.91 	0.053753 	4930 	0.053515
37.95 	0.057102 	4921 	0.056249
37.99 	0.052321 	4912 	0.051248
38.03 	0.055001 	4909 	0.053927
38.07 	0.053779 	4909 	0.052943
38.11 	0.051469 	4935 	0.050757
38.15 	0.057137 	4918 	0.056541
38.19 	0.048479 	4930 	0.047647
38.23 	0.056501 	4938 	0.055314
38.27 	0.056795 	4930 	0.056320
38.31 	0.057033 	4927 	0.055844
38.35 	0.055195 	4928 	0.054125
38.39 	0.058464 	4909 	0.057629
38.43 	0.062042 	4916 	0.061665
38.47 	0.062564 	4907 	0.061609
38.51 	0.062652 	4932 	0.061346
38.55 	0.056726 	4936 	0.055895
38.59 	0.053615 	4924 	0.053020
38.63 	0.058083 	4924 	0.056655
38.67 	0.052258 	4937 	0.051784
38.71 	0.057880 	4924 	0.056433
38.75 	0.060889 	4927 	0.059819
38.79 	0.051682 	4934 	0.050732
38.83 	0.051027 	4919 	0.050312
38.87 	0.053553 	4911 	0.052957
38.91 	0.047318 	4903 	0.046840
38.95 	0.050224 	4918 	0.049985
38.99 	0.048005 	4937 	0.047293
39.03 	0.047629 	4934 	0.047273
39.07 	0.049350 	4924 	0.048398
39.11 	0.049888 	4931 	0.048700
39.15 	0.051475 	4915 	0.050879
39.19 	0.047183 	4917 	0.046349
39.23 	0.048122 	4925 	0.047646
39.27 	0.048880 	4910 	0.048283
39.31 	0.041769 	4884 	0.041049
39.35 	0.043161 	4935 	0.042686
39.39 	0.052546 	4929 	0.052308
39.43 	0.048044 	4933 	0.047331
39.47 	0.046516 	4923 	0.046278
39.51 	0.051178 	4924 	0.050464
39.55 	0.045131 	4919 	0.044774
39.59 	0.049267 	4912 	0.048313
39.63 	0.048557 	4922 	0.047724
39.67 	0.048239 	4913 	0.047762
39.71 	0.042492 	4895 	0.042014
39.75 	0.047484 	4928 	0.047008
39.79 	0.048518 	4926 	0.047567
39.83 	0.048845 	4934 	0.048232
39.87 	0.052589 	4925 	0.052113
39.91 	0.045104 	4922 	0.044866
39.95 	0.047406 	4915 	0.046452
39.99 	0.049270 	4932 	0.048201
40.03 	0.044846 	4928 	0.043756
40.07 	0.037782 	4923 	0.037167
40.11 	0.047193 	4916 	0.046597
40.15 	0.048646 	4913 	0.047693
40.19 	0.041793 	4929 	0.040962
40.23 	0.042985 	4932 	0.042391
40.27 	0.044561 	4937 	0.044324
40.31 	0.049403 	4939 	0.048691
40.35 	0.050417 	4919 	0.049583
40.39 	0.045427 	4931 	0.044714
40.43 	0.041650 	4922 	0.040698
40.47 	0.044937 	4918 	0.044103
40.51 	0.041853 	4922 	0.041853
40.55 	0.045029 	4908 	0.044670
40.59 	0.045169 	4937 	0.044339
40.63 	0.047059 	4930 	0.046108
40.67 	0.041768 	4932 	0.040818
40.71 	0.050892 	4932 	0.050180
40.75 	0.042791 	4931 	0.042315
40.79 	0.047319 	4924 	0.046368
40.83 	0.049716 	4928 	0.048408
40.87 	0.045860 	4928 	0.044909
40.91 	0.047329 	4923 	0.047091
40.95 	0.042337 	4913 	0.041740
40.99 	0.045898 	4924 	0.044827
41.03 	0.041590 	4905 	0.041351
41.07 	0.038134 	4930 	0.037421
41.11 	0.047619 	4935 	0.046669
41.15 	0.047156 	4941 	0.046564
41.19 	0.041176 	4930 	0.040701
41.23 	0.048188 	4939 	0.047595
41.27 	0.045427 	4931 	0.044714
41.31 	0.045814 	4933 	0.045458
41.35 	0.040502 	4938 	0.040265
41.39 	0.044192 	4933 	0.043480
41.43 	0.046054 	4929 	0.044747
41.47 	0.041819 	4926 	0.041462
41.51 	0.048178 	4940 	0.047348
41.55 	0.040122 	4935 	0.039765
41.59 	0.046422 	4933 	0.045591
41.63 	0.043135 	4938 	0.043016
41.67 	0.047976 	4940 	0.047383
41.71 	0.041548 	4934 	0.041311
41.75 	0.043619 	4929 	0.043025
41.79 	0.043285 	4944 	0.042929
41.83 	0.039773 	4928 	0.039297
41.87 	0.040729 	4935 	0.040373
41.91 	0.038088 	4936 	0.037969
41.95 	0.042791 	4931 	0.041959
41.99 	0.040775 	4905 	0.040416
42.03 	0.043329 	4939 	0.042736
42.07 	0.040105 	4937 	0.039631
42.11 	0.039636 	4945 	0.039399
42.15 	0.041717 	4938 	0.041361
42.19 	0.036675 	4908 	0.036555
42.23 	0.042314 	4892 	0.041835
42.27 	0.040419 	4874 	0.040058
42.31 	0.039135 	4855 	0.038652
42.35 	0.038652 	4838 	0.038269
42.39 	0.042048 	4804 	0.041926
42.43 	0.039649 	4792 	0.039160
42.47 	0.040714 	4765 	0.040591
42.51 	0.041746 	4743 	0.041252
42.55 	0.044180 	4708 	0.043931
42.59 	0.041658 	4729 	0.041039
42.63 	0.041622 	4709 	0.041374
42.67 	0.039710 	4684 	0.039334
42.71 	0.033669 	4663 	0.033418
42.75 	0.040719 	4617 	0.040212
42.79 	0.039066 	4582 	0.038555
42.83 	0.043210 	4536 	0.042693
42.87 	0.040676 	4499 	0.040415
42.91 	0.039946 	4456 	0.039157
42.95 	0.041893 	4416 	0.041760
42.99 	0.041277 	4385 	0.041010
43.03 	0.042696 	4333 	0.042425
43.07 	0.045624 	4296 	0.045078
43.11 	0.044653 	4255 	0.043965
43.15 	0.040656 	4206 	0.040378
43.19 	0.039103 	4194 	0.038545
43.23 	0.037313 	4154 	0.037031
43.27 	0.043362 	4105 	0.042648
43.31 	0.040206 	4079 	0.039488
43.35 	0.038442 	4032 	0.038297
43.39 	0.042729 	4002 	0.041997
43.43 	0.041919 	3960 	0.041623
43.47 	0.044121 	3921 	0.043225
43.51 	0.046686 	3877 	0.046383
43.55 	0.039474 	2964 	0.038881
43.59 	0.042383 	1746 	0.042047
43.63 	0.028971 	1001 	0.028971
43.67 	0.043825 	502 	0.043825
43.71 	0.029289 	239 	0.029289
43.75 	0.000000 	16 	0.000000