File: Example_Data/25SC_s1_0024.004.dat
#F C:\frames\spec\25SC_s1_0024.004
#C title =s:24 frm:4 25SC_s1
#C wavelength =0.15406

#S 1  fr_average C:\frames\spec\25SC_s1_0024.004 C:\win32app\speccom\mask.axs chi 0 180 0 360 0.02
#C 2 theta =0.000000 to 180 deg
#C   q   =0.000000 to 81.568 nm^-1
#C  chi  =0.000000 to 360 deg
#C collumns:
#C  1 position (2theta or chi in degrees)
#C  2 average intensity (sum of all counts in the region divided with number of pixels)
#C  3 Number of pixels in region)
#C  4 error (sum of sqrt(intensity) for all pixels divided by number)
#N 4
#L TTh  Int  N_pix  Err
32.99 	0.049180 	61 	0.039577
33.03 	0.056075 	1391 	0.055233
33.07 	0.063902 	2050 	0.062188
33.11 	0.061652 	2579 	0.059835
33.15 	0.056686 	2999 	0.055709
33.19 	0.059844 	3342 	0.058793
33.23 	0.054783 	3523 	0.052899
33.27 	0.056198 	3630 	0.054585
33.31 	0.059290 	3660 	0.058809
33.35 	0.060097 	3694 	0.058168
33.39 	0.054706 	3729 	0.054078
33.43 	0.055570 	3761 	0.054947
33.47 	0.062401 	3798 	0.061013
33.51 	0.057405 	3815 	0.056458
33.55 	0.061150 	3843 	0.059473
33.59 	0.062113 	3880 	0.061057
33.63 	0.062516 	3919 	0.061470
33.67 	0.056651 	3954 	0.055763
33.71 	0.050566 	3975 	0.049977
33.75 	0.054514 	3999 	0.053342
33.79 	0.063846 	4041 	0.062831
33.83 	0.053580 	4050 	0.052423
33.87 	0.053758 	4111 	0.052618
33.91 	0.057604 	4149 	0.056028
33.95 	0.059794 	4181 	0.058253
33.99 	0.061905 	4200 	0.060928
34.03 	0.058907 	4244 	0.057941
34.07 	0.055764 	4268 	0.054940
34.11 	0.062297 	4302 	0.061071
34.15 	0.056569 	4331 	0.056028
34.19 	0.056167 	4362 	0.055764
34.23 	0.060551 	4393 	0.059862
34.27 	0.060380 	4422 	0.059585
34.31 	0.062135 	4458 	0.061478
34.35 	0.054193 	4484 	0.052756
34.39 	0.058863 	4502 	0.058082
34.43 	0.058824 	4539 	0.057533
34.47 	0.054443 	4592 	0.053677
34.51 	0.065567 	4606 	0.064422
34.55 	0.057506 	4643 	0.056244
34.59 	0.061604 	4675 	0.060226
34.63 	0.062845 	4710 	0.061208
34.67 	0.062645 	4741 	0.062027
34.71 	0.056232 	4766 	0.054716
34.75 	0.061356 	4808 	0.059630
34.79 	0.058665 	4824 	0.057309
34.83 	0.053065 	4862 	0.052221
34.87 	0.057724 	4868 	0.057243
34.91 	0.062679 	4882 	0.061479
34.95 	0.061350 	4890 	0.060631
34.99 	0.055136 	4897 	0.054418
35.03 	0.060692 	4943 	0.060218
35.07 	0.066397 	4940 	0.065330
35.11 	0.061654 	4947 	0.061061
35.15 	0.060361 	4937 	0.059293
35.19 	0.054634 	4942 	0.054397
35.23 	0.055005 	4945 	0.054057
35.27 	0.064066 	4948 	0.062745
35.31 	0.061220 	4933 	0.060745
35.35 	0.057669 	4942 	0.057195
35.39 	0.053994 	4945 	0.053165
35.43 	0.066288 	4933 	0.065220
35.47 	0.058000 	4931 	0.057050
35.51 	0.051766 	4926 	0.051290
35.55 	0.065925 	4945 	0.064859
35.59 	0.063903 	4945 	0.062481
35.63 	0.063322 	4943 	0.062611
35.67 	0.058074 	4942 	0.056750
35.71 	0.056715 	4937 	0.055409
35.75 	0.059420 	4931 	0.058588
35.79 	0.062449 	4932 	0.061143
35.83 	0.059240 	4946 	0.058766
35.87 	0.056876 	4923 	0.056043
35.91 	0.063122 	4927 	0.062289
35.95 	0.056539 	4917 	0.055824
35.99 	0.057299 	4939 	0.056193
36.03 	0.060490 	4943 	0.059542
36.07 	0.054869 	4939 	0.054158
36.11 	0.058024 	4929 	0.057192
36.15 	0.061348 	4939 	0.059925
36.19 	0.052632 	4940 	0.051802
36.23 	0.059169 	4935 	0.058576
36.27 	0.052183 	4925 	0.051588
36.31 	0.063312 	4928 	0.061628
36.35 	0.055792 	4929 	0.054841
36.39 	0.055883 	4921 	0.055169
36.43 	0.064123 	4928 	0.062459
36.47 	0.061588 	4936 	0.061114
36.51 	0.056558 	4933 	0.055252
36.55 	0.057439 	4927 	0.056250
36.59 	0.057906 	4939 	0.056483
36.63 	0.055770 	4931 	0.054819
36.67 	0.057809 	4930 	0.056621
36.71 	0.058728 	4921 	0.057538
36.75 	0.055016 	4944 	0.054187
36.79 	0.060963 	4921 	0.059892
36.83 	0.054527 	4915 	0.053812
36.87 	0.055421 	4944 	0.054473
36.91 	0.054038 	4941 	0.053682
36.95 	0.052098 	4933 	0.050673
36.99 	0.058967 	4935 	0.057661
37.03 	0.055240 	4924 	0.054169
37.07 	0.059372 	4935 	0.058066
37.11 	0.058561 	4935 	0.057018
37.15 	0.056631 	4909 	0.056153
37.19 	0.056244 	4925 	0.055768
37.23 	0.054900 	4918 	0.053709
37.27 	0.054352 	4894 	0.053395
37.31 	0.055522 	4935 	0.054553
37.35 	0.044755 	4938 	0.044142
37.39 	0.055161 	4931 	0.054092
37.43 	0.055353 	4932 	0.054759
37.47 	0.055184 	4929 	0.054094
37.51 	0.055950 	4933 	0.054881
37.55 	0.057404 	4930 	0.056691
37.59 	0.054934 	4915 	0.054199
37.63 	0.056109 	4919 	0.055156
37.67 	0.060359 	4904 	0.059523
37.71 	0.053155 	4929 	0.052679
37.75 	0.051619 	4940 	0.050908
37.79 	0.052333 	4930 	0.051620
37.83 	0.054268 	4920 	0.053435
37.87 	0.048390 	4939 	0.047797
37.91 	0.052535 	4930 	0.051941
37.95 	0.049177 	4921 	0.048582
37.99 	0.055171 	4912 	0.054336
38.03 	0.060705 	4909 	0.059154
38.07 	0.052557 	4909 	0.051363
38.11 	0.052685 	4935 	0.051735
38.15 	0.057747 	4918 	0.056080
38.19 	0.061258 	4930 	0.060069
38.23 	0.064196 	4938 	0.063247
38.27 	0.062272 	4930 	0.060489
38.31 	0.063933 	4927 	0.062249
38.35 	0.062297 	4928 	0.061346
38.39 	0.066001 	4909 	0.064808
38.43 	0.067331 	4916 	0.066735
38.47 	0.062971 	4907 	0.061997
38.51 	0.069546 	4932 	0.068477
38.55 	0.065032 	4936 	0.064083
38.59 	0.056864 	4924 	0.055497
38.63 	0.061738 	4924 	0.060787
38.67 	0.061171 	4937 	0.060321
38.71 	0.053006 	4924 	0.052530
38.75 	0.062310 	4927 	0.061240
38.79 	0.056952 	4934 	0.056596
38.83 	0.051840 	4919 	0.051244
38.87 	0.049888 	4911 	0.049053
38.91 	0.050581 	4903 	0.050342
38.95 	0.051444 	4918 	0.050610
38.99 	0.048005 	4937 	0.047412
39.03 	0.053304 	4934 	0.052591
39.07 	0.056458 	4924 	0.055863
39.11 	0.052930 	4931 	0.052336
39.15 	0.061851 	4915 	0.061256
39.19 	0.052471 	4917 	0.051399
39.23 	0.055431 	4925 	0.054004
39.27 	0.054990 	4910 	0.054035
39.31 	0.047707 	4884 	0.046847
39.35 	0.049848 	4935 	0.049017
39.39 	0.054778 	4929 	0.054065
39.43 	0.054531 	4933 	0.053442
39.47 	0.049970 	4923 	0.049375
39.51 	0.048741 	4924 	0.047670
39.55 	0.052856 	4919 	0.052023
39.59 	0.054357 	4912 	0.053164
39.63 	0.057294 	4922 	0.056937
39.67 	0.063709 	4913 	0.063112
39.71 	0.059653 	4895 	0.058695
39.75 	0.055195 	4928 	0.054363
39.79 	0.057856 	4926 	0.056548
39.83 	0.052898 	4934 	0.052542
39.87 	0.056041 	4925 	0.055208
39.91 	0.052824 	4922 	0.052110
39.95 	0.055341 	4915 	0.054487
39.99 	0.060827 	4932 	0.059164
40.03 	0.057224 	4928 	0.056273
40.07 	0.050173 	4923 	0.048963
40.11 	0.058177 	4916 	0.057343
40.15 	0.057399 	4913 	0.056564
40.19 	0.056807 	4929 	0.055618
40.23 	0.049878 	4932 	0.048809
40.27 	0.047397 	4937 	0.047160
40.31 	0.052845 	4939 	0.051421
40.35 	0.047571 	4919 	0.047075
40.39 	0.061042 	4931 	0.059478
40.43 	0.051199 	4922 	0.049533
40.47 	0.046360 	4918 	0.045646
40.51 	0.053434 	4922 	0.052838
40.55 	0.055623 	4908 	0.054907
40.59 	0.049220 	4937 	0.048627
40.63 	0.050507 	4930 	0.050032
40.67 	0.048054 	4932 	0.047222
40.71 	0.049067 	4932 	0.047880
40.75 	0.047049 	4931 	0.046436
40.79 	0.050975 	4924 	0.050261
40.83 	0.054586 	4928 	0.054229
40.87 	0.057427 	4928 	0.056357
40.91 	0.046719 	4923 	0.045887
40.95 	0.058009 	4913 	0.057413
40.99 	0.045288 	4924 	0.045050
41.03 	0.045668 	4905 	0.044951
41.07 	0.052738 	4930 	0.052263
41.11 	0.054103 	4935 	0.053391
41.15 	0.052823 	4941 	0.052468
41.19 	0.048276 	4930 	0.048038
41.23 	0.049200 	4939 	0.048133
41.27 	0.051714 	4931 	0.051357
41.31 	0.052909 	4933 	0.052296
41.35 	0.054273 	4938 	0.053443
41.39 	0.048652 	4933 	0.048296
41.43 	0.049503 	4929 	0.048790
41.47 	0.052984 	4926 	0.052390
41.51 	0.053846 	4940 	0.053115
41.55 	0.044782 	4935 	0.044070
41.59 	0.049057 	4933 	0.048464
41.63 	0.048400 	4938 	0.047451
41.67 	0.049393 	4940 	0.048325
41.71 	0.050263 	4934 	0.049789
41.75 	0.049300 	4929 	0.048944
41.79 	0.047532 	4944 	0.047058
41.83 	0.050122 	4928 	0.049270
41.87 	0.047619 	4935 	0.047144
41.91 	0.047609 	4936 	0.047016
41.95 	0.046644 	4931 	0.046287
41.99 	0.051784 	4905 	0.050809
42.03 	0.048795 	4939 	0.047965
42.07 	0.046182 	4937 	0.045826
42.11 	0.044287 	4945 	0.043458
42.15 	0.048805 	4938 	0.048568
42.19 	0.051752 	4908 	0.051155
42.23 	0.046607 	4892 	0.045529
42.27 	0.048215 	4874 	0.047133
42.31 	0.048816 	4855 	0.048454
42.35 	0.045887 	4838 	0.045281
42.39 	0.045795 	4804 	0.044942
42.43 	0.049040 	4792 	0.048429
42.47 	0.046380 	4765 	0.046257
42.51 	0.039637 	4743 	0.039267
42.55 	0.046517 	4708 	0.045770
42.59 	0.048002 	4729 	0.047382
42.63 	0.049904 	4709 	0.049407
42.67 	0.046755 	4684 	0.046255
42.71 	0.045679 	4663 	0.044925
42.75 	0.049383 	4617 	0.048093
42.79 	0.044740 	4582 	0.044101
42.83 	0.053792 	4536 	0.052479
42.87 	0.043121 	4499 	0.042058
42.91 	0.049147 	4456 	0.048884
42.95 	0.046875 	4416 	0.046610
42.99 	0.048575 	4385 	0.047506
43.03 	0.045234 	4333 	0.044423
43.07 	0.047020 	4296 	0.045657
43.11 	0.041363 	4255 	0.040399
43.15 	0.042558 	4206 	0.042001
43.19 	0.043872 	4194 	0.043174
43.23 	0.047665 	4154 	0.047383
43.27 	0.049452 	4105 	0.048596
43.31 	0.050993 	4079 	0.049533
43.35 	0.050843 	4032 	0.050407
43.39 	0.049725 	4002 	0.049432
43.43 	0.047727 	3960 	0.046396
43.47 	0.051773 	3921 	0.050577
43.51 	0.050297 	3877 	0.049692
43.55 	0.047571 	2964 	0.046978
43.59 	0.048110 	1746 	0.048110
43.63 	0.047952 	1001 	0.046782
43.67 	0.045817 	502 	0.045817
43.71 	0.041841 	239 	0.041841
43.75 	0.062500 	16 	0.062500