File: Example_Data/25SC_s1_0019.004.dat
#F C:\frames\spec\25SC_s1_0019.004
#C title =s:19 frm:4 25SC_s1
#C wavelength =0.15406

#S 1  fr_average C:\frames\spec\25SC_s1_0019.004 C:\win32app\speccom\mask.axs chi 0 180 0 360 0.02
#C 2 theta =0.000000 to 180 deg
#C   q   =0.000000 to 81.568 nm^-1
#C  chi  =0.000000 to 360 deg
#C collumns:
#C  1 position (2theta or chi in degrees)
#C  2 average intensity (sum of all counts in the region divided with number of pixels)
#C  3 Number of pixels in region)
#C  4 error (sum of sqrt(intensity) for all pixels divided by number)
#N 4
#L TTh  Int  N_pix  Err
32.99 	0.065574 	61 	0.055971
33.03 	0.054637 	1391 	0.054637
33.07 	0.060976 	2050 	0.060118
33.11 	0.057387 	2579 	0.056478
33.15 	0.057352 	2999 	0.056766
33.19 	0.058348 	3342 	0.056771
33.23 	0.053647 	3523 	0.052816
33.27 	0.058678 	3630 	0.057548
33.31 	0.065027 	3660 	0.064201
33.35 	0.061722 	3694 	0.060453
33.39 	0.052293 	3729 	0.050879
33.43 	0.064876 	3761 	0.064072
33.47 	0.059242 	3798 	0.058933
33.51 	0.056094 	3815 	0.055173
33.55 	0.064273 	3843 	0.063053
33.59 	0.057732 	3880 	0.056675
33.63 	0.057413 	3919 	0.056217
33.67 	0.063480 	3954 	0.062887
33.71 	0.057862 	3975 	0.056953
33.75 	0.056264 	3999 	0.055508
33.79 	0.056917 	4041 	0.056192
33.83 	0.059012 	4050 	0.058289
33.87 	0.053028 	4111 	0.052031
33.91 	0.060497 	4149 	0.059508
33.95 	0.066730 	4181 	0.065189
33.99 	0.060000 	4200 	0.058745
34.03 	0.064090 	4244 	0.062572
34.07 	0.065370 	4268 	0.064821
34.11 	0.061134 	4302 	0.060590
34.15 	0.066497 	4331 	0.065415
34.19 	0.063274 	4362 	0.061909
34.23 	0.063282 	4393 	0.062082
34.27 	0.063546 	4422 	0.062354
34.31 	0.061911 	4458 	0.061123
34.35 	0.058207 	4484 	0.057554
34.39 	0.058418 	4502 	0.057768
34.43 	0.053095 	4539 	0.052450
34.47 	0.061193 	4592 	0.060300
34.51 	0.065784 	4606 	0.064894
34.55 	0.060952 	4643 	0.059438
34.59 	0.062888 	4675 	0.062261
34.63 	0.067091 	4710 	0.066345
34.67 	0.059692 	4741 	0.058704
34.71 	0.057491 	4766 	0.056139
34.75 	0.058028 	4808 	0.057663
34.79 	0.057214 	4824 	0.055757
34.83 	0.061909 	4862 	0.060945
34.87 	0.056491 	4868 	0.055769
34.91 	0.069848 	4882 	0.068769
34.95 	0.058282 	4890 	0.057424
34.99 	0.060854 	4897 	0.059877
35.03 	0.060287 	4943 	0.059102
35.07 	0.060324 	4940 	0.059375
35.11 	0.068931 	4947 	0.067628
35.15 	0.062791 	4937 	0.061367
35.19 	0.061311 	4942 	0.060126
35.23 	0.061678 	4945 	0.060731
35.27 	0.061641 	4948 	0.060457
35.31 	0.061829 	4933 	0.060879
35.35 	0.059085 	4942 	0.057663
35.39 	0.058038 	4945 	0.056972
35.43 	0.061220 	4933 	0.060726
35.47 	0.062665 	4931 	0.061714
35.51 	0.063134 	4926 	0.061212
35.55 	0.059050 	4945 	0.058694
35.59 	0.058241 	4945 	0.057648
35.63 	0.058669 	4943 	0.057721
35.67 	0.056860 	4942 	0.055793
35.71 	0.056917 	4937 	0.055968
35.75 	0.062462 	4931 	0.061393
35.79 	0.063058 	4932 	0.061989
35.83 	0.063081 	4946 	0.061778
35.87 	0.059313 	4923 	0.058481
35.91 	0.060889 	4927 	0.059938
35.95 	0.062030 	4917 	0.060223
35.99 	0.058514 	4939 	0.057802
36.03 	0.062108 	4943 	0.060804
36.07 	0.056287 	4939 	0.054439
36.11 	0.062284 	4929 	0.061571
36.15 	0.057502 	4939 	0.056908
36.19 	0.056478 	4940 	0.055173
36.23 	0.066261 	4935 	0.064718
36.27 	0.061929 	4925 	0.060858
36.31 	0.056818 	4928 	0.056105
36.35 	0.064516 	4929 	0.063209
36.39 	0.057509 	4921 	0.056556
36.43 	0.058644 	4928 	0.057218
36.47 	0.056321 	4936 	0.055609
36.51 	0.055342 	4933 	0.054629
36.55 	0.055003 	4927 	0.053913
36.59 	0.059729 	4939 	0.058661
36.63 	0.059014 	4931 	0.058183
36.67 	0.059635 	4930 	0.058546
36.71 	0.057712 	4921 	0.057236
36.75 	0.053398 	4944 	0.052450
36.79 	0.058321 	4921 	0.057488
36.83 	0.054730 	4915 	0.053300
36.87 	0.056028 	4944 	0.055198
36.91 	0.055454 	4941 	0.054743
36.95 	0.053517 	4933 	0.052923
36.99 	0.059169 	4935 	0.057982
37.03 	0.056052 	4924 	0.055457
37.07 	0.060588 	4935 	0.059757
37.11 	0.051064 	4935 	0.050095
37.15 	0.058464 	4909 	0.057012
37.19 	0.059289 	4925 	0.057862
37.23 	0.058967 	4918 	0.058372
37.27 	0.052922 	4894 	0.052204
37.31 	0.050659 	4935 	0.050065
37.35 	0.057716 	4938 	0.056767
37.39 	0.055161 	4931 	0.054211
37.43 	0.055353 	4932 	0.054521
37.47 	0.057010 	4929 	0.055940
37.51 	0.049666 	4933 	0.049072
37.55 	0.055578 	4930 	0.054489
37.59 	0.054527 	4915 	0.053693
37.63 	0.059972 	4919 	0.059495
37.67 	0.053222 	4904 	0.052505
37.71 	0.056807 	4929 	0.055856
37.75 	0.053441 	4940 	0.052967
37.79 	0.057606 	4930 	0.056537
37.83 	0.057520 	4920 	0.056211
37.87 	0.058311 	4939 	0.057481
37.91 	0.059026 	4930 	0.057957
37.95 	0.059134 	4921 	0.058420
37.99 	0.056393 	4912 	0.055558
38.03 	0.056631 	4909 	0.055776
38.07 	0.056020 	4909 	0.055184
38.11 	0.058764 	4935 	0.058289
38.15 	0.057340 	4918 	0.056149
38.19 	0.065517 	4930 	0.063715
38.23 	0.062981 	4938 	0.061795
38.27 	0.060649 	4930 	0.060411
38.31 	0.064136 	4927 	0.063166
38.35 	0.065747 	4928 	0.065034
38.39 	0.066612 	4909 	0.065419
38.43 	0.065704 	4916 	0.064631
38.47 	0.069900 	4907 	0.068448
38.51 	0.066707 	4932 	0.065757
38.55 	0.065843 	4936 	0.064419
38.59 	0.053818 	4924 	0.053223
38.63 	0.063566 	4924 	0.063090
38.67 	0.060158 	4937 	0.059683
38.71 	0.057271 	4924 	0.055585
38.75 	0.058453 	4927 	0.056769
38.79 	0.053912 	4934 	0.052724
38.83 	0.049604 	4919 	0.049108
38.87 	0.044797 	4911 	0.043962
38.91 	0.055068 	4903 	0.054113
38.95 	0.054697 	4918 	0.053625
38.99 	0.050233 	4937 	0.049521
39.03 	0.058573 	4934 	0.057980
39.07 	0.053006 	4924 	0.052173
39.11 	0.052728 	4931 	0.052252
39.15 	0.056562 	4915 	0.055469
39.19 	0.055725 	4917 	0.054772
39.23 	0.050964 	4925 	0.050013
39.27 	0.052138 	4910 	0.051781
39.31 	0.053030 	4884 	0.052071
39.35 	0.056535 	4935 	0.055348
39.39 	0.055995 	4929 	0.055025
39.43 	0.055544 	4933 	0.055188
39.47 	0.053423 	4923 	0.053066
39.51 	0.054630 	4924 	0.054273
39.55 	0.057125 	4919 	0.056530
39.59 	0.061482 	4912 	0.060170
39.63 	0.056075 	4922 	0.055004
39.67 	0.054956 	4913 	0.054122
39.71 	0.060878 	4895 	0.059921
39.75 	0.060674 	4928 	0.059604
39.79 	0.065976 	4926 	0.064649
39.83 	0.058168 	4934 	0.056743
39.87 	0.052995 	4925 	0.052262
39.91 	0.058919 	4922 	0.057372
39.95 	0.052492 	4915 	0.051420
39.99 	0.051095 	4932 	0.050620
40.03 	0.051948 	4928 	0.051354
40.07 	0.058907 	4923 	0.057479
40.11 	0.055736 	4916 	0.055260
40.15 	0.053328 	4913 	0.052016
40.19 	0.055184 	4929 	0.054589
40.23 	0.053731 	4932 	0.052761
40.27 	0.053474 	4937 	0.053118
40.31 	0.054262 	4939 	0.053432
40.35 	0.056312 	4919 	0.055598
40.39 	0.057189 	4931 	0.056120
40.43 	0.049573 	4922 	0.049216
40.47 	0.051444 	4918 	0.050590
40.51 	0.050589 	4922 	0.049994
40.55 	0.048696 	4908 	0.048099
40.59 	0.052664 	4937 	0.052189
40.63 	0.057809 	4930 	0.057077
40.67 	0.050487 	4932 	0.049418
40.71 	0.054745 	4932 	0.054151
40.75 	0.049077 	4931 	0.048483
40.79 	0.054427 	4924 	0.052623
40.83 	0.050325 	4928 	0.049730
40.87 	0.045455 	4928 	0.044741
40.91 	0.051595 	4923 	0.051238
40.95 	0.051903 	4913 	0.051307
40.99 	0.056661 	4924 	0.055690
41.03 	0.055046 	4905 	0.053971
41.07 	0.051724 	4930 	0.050655
41.11 	0.052077 	4935 	0.051365
41.15 	0.053026 	4941 	0.052196
41.19 	0.054158 	4930 	0.053326
41.23 	0.051832 	4939 	0.051121
41.27 	0.052119 	4931 	0.051406
41.31 	0.052706 	4933 	0.051737
41.35 	0.055893 	4938 	0.055300
41.39 	0.052706 	4933 	0.051737
41.43 	0.049097 	4929 	0.048622
41.47 	0.049736 	4926 	0.048904
41.51 	0.047368 	4940 	0.046538
41.55 	0.053901 	4935 	0.052714
41.59 	0.053314 	4933 	0.052483
41.63 	0.050020 	4938 	0.048597
41.67 	0.052429 	4940 	0.051243
41.71 	0.041548 	4934 	0.040955
41.75 	0.048083 	4929 	0.047370
41.79 	0.047735 	4944 	0.047123
41.83 	0.045455 	4928 	0.045217
41.87 	0.044580 	4935 	0.044223
41.91 	0.052269 	4936 	0.051676
41.95 	0.049280 	4931 	0.048567
41.99 	0.042202 	4905 	0.041246
42.03 	0.048795 	4939 	0.047965
42.07 	0.045574 	4937 	0.045456
42.11 	0.052174 	4945 	0.051226
42.15 	0.045362 	4938 	0.044750
42.19 	0.048900 	4908 	0.048661
42.23 	0.052330 	4892 	0.050893
42.27 	0.050882 	4874 	0.050161
42.31 	0.046756 	4855 	0.046032
42.35 	0.043613 	4838 	0.043371
42.39 	0.049750 	4804 	0.048775
42.43 	0.045910 	4792 	0.045421
42.47 	0.048269 	4765 	0.048023
42.51 	0.044697 	4743 	0.043956
42.55 	0.045667 	4708 	0.045667
42.59 	0.046310 	4729 	0.045195
42.63 	0.039074 	4709 	0.038825
42.67 	0.051238 	4684 	0.049863
42.71 	0.049539 	4663 	0.049162
42.75 	0.044834 	4617 	0.044454
42.79 	0.048450 	4582 	0.047172
42.83 	0.049824 	4536 	0.049565
42.87 	0.048011 	4499 	0.047099
42.91 	0.051616 	4456 	0.050696
42.95 	0.053442 	4416 	0.052492
42.99 	0.048803 	4385 	0.048268
43.03 	0.049388 	4333 	0.048307
43.07 	0.054236 	4296 	0.053418
43.11 	0.043008 	4255 	0.042182
43.15 	0.053257 	4206 	0.052282
43.19 	0.047926 	4194 	0.046948
43.23 	0.046461 	4154 	0.045756
43.27 	0.045311 	4105 	0.044169
43.31 	0.053199 	4079 	0.052050
43.35 	0.039683 	4032 	0.039101
43.39 	0.049225 	4002 	0.048347
43.43 	0.049747 	3960 	0.048663
43.47 	0.042591 	3921 	0.041521
43.51 	0.049007 	3877 	0.048252
43.55 	0.050607 	2964 	0.050410
43.59 	0.045246 	1746 	0.044575
43.63 	0.037962 	1001 	0.037962
43.67 	0.045817 	502 	0.044650
43.71 	0.046025 	239 	0.043574
43.75 	0.062500 	16 	0.062500