File: Example_Data/25SC_s1_0039.000.dat
#F C:\frames\spec\25SC_s1_0039.000
#C title =s:39 frm:0 25SC_s1
#C wavelength =0.15406

#S 1  fr_average C:\frames\spec\25SC_s1_0039.000 C:\win32app\speccom\mask.axs chi 0 180 0 360 0.02
#C 2 theta =0.000000 to 180 deg
#C   q   =0.000000 to 81.568 nm^-1
#C  chi  =0.000000 to 360 deg
#C collumns:
#C  1 position (2theta or chi in degrees)
#C  2 average intensity (sum of all counts in the region divided with number of pixels)
#C  3 Number of pixels in region)
#C  4 error (sum of sqrt(intensity) for all pixels divided by number)
#N 4
#L TTh  Int  N_pix  Err
32.99 	0.000000 	61 	0.000000
33.03 	0.055356 	1391 	0.053671
33.07 	0.059512 	2050 	0.058655
33.11 	0.061264 	2579 	0.060583
33.15 	0.060687 	2999 	0.059678
33.19 	0.053262 	3342 	0.052736
33.23 	0.063014 	3523 	0.061989
33.27 	0.060331 	3630 	0.058852
33.31 	0.063934 	3660 	0.062308
33.35 	0.067136 	3694 	0.065709
33.39 	0.053366 	3729 	0.052423
33.43 	0.061154 	3761 	0.059752
33.47 	0.058189 	3798 	0.057263
33.51 	0.061075 	3815 	0.059693
33.55 	0.066094 	3843 	0.064113
33.59 	0.058247 	3880 	0.057493
33.63 	0.055371 	3919 	0.054923
33.67 	0.060445 	3954 	0.059408
33.71 	0.059371 	3975 	0.057750
33.75 	0.062766 	3999 	0.061277
33.79 	0.064341 	4041 	0.062746
33.83 	0.059506 	4050 	0.058638
33.87 	0.060326 	4111 	0.059756
33.91 	0.053989 	4149 	0.053989
33.95 	0.060512 	4181 	0.059811
33.99 	0.053571 	4200 	0.052595
34.03 	0.055137 	4244 	0.054585
34.07 	0.057873 	4268 	0.056363
34.11 	0.060669 	4302 	0.058763
34.15 	0.060263 	4331 	0.058775
34.19 	0.060293 	4362 	0.057966
34.23 	0.055543 	4393 	0.054343
34.27 	0.051334 	4422 	0.050672
34.31 	0.050920 	4458 	0.049453
34.35 	0.058653 	4484 	0.057608
34.39 	0.054198 	4502 	0.052876
34.43 	0.057722 	4539 	0.056819
34.47 	0.057927 	4592 	0.056651
34.51 	0.060356 	4606 	0.059318
34.55 	0.057075 	4643 	0.055435
34.59 	0.060749 	4675 	0.059997
34.63 	0.059448 	4710 	0.058702
34.67 	0.052942 	4741 	0.052201
34.71 	0.054133 	4766 	0.053273
34.75 	0.058860 	4808 	0.057886
34.79 	0.053483 	4824 	0.052875
34.83 	0.055121 	4862 	0.054639
34.87 	0.056697 	4868 	0.055975
34.91 	0.054896 	4882 	0.054416
34.95 	0.064008 	4890 	0.062930
34.99 	0.061466 	4897 	0.060250
35.03 	0.052600 	4943 	0.052007
35.07 	0.059717 	4940 	0.058768
35.11 	0.055994 	4947 	0.055165
35.15 	0.059348 	4937 	0.057667
35.19 	0.056657 	4942 	0.055946
35.23 	0.059858 	4945 	0.059029
35.27 	0.053355 	4948 	0.052763
35.31 	0.060815 	4933 	0.059746
35.35 	0.060704 	4942 	0.059637
35.39 	0.057432 	4945 	0.057076
35.43 	0.051287 	4933 	0.050199
35.47 	0.056581 	4931 	0.055987
35.51 	0.056029 	4926 	0.055554
35.55 	0.054601 	4945 	0.054008
35.59 	0.059656 	4945 	0.058472
35.63 	0.058264 	4943 	0.057553
35.67 	0.057871 	4942 	0.056923
35.71 	0.055499 	4937 	0.054412
35.75 	0.059217 	4931 	0.058148
35.79 	0.052311 	4932 	0.051005
35.83 	0.048928 	4946 	0.048099
35.87 	0.058298 	4923 	0.057703
35.91 	0.058250 	4927 	0.057062
35.95 	0.053691 	4917 	0.053215
35.99 	0.063981 	4939 	0.063032
36.03 	0.054623 	4943 	0.053675
36.07 	0.057704 	4939 	0.056992
36.11 	0.055589 	4929 	0.054757
36.15 	0.063778 	4939 	0.061861
36.19 	0.053441 	4940 	0.052848
36.23 	0.056738 	4935 	0.055907
36.27 	0.051980 	4925 	0.051385
36.31 	0.058442 	4928 	0.057491
36.35 	0.055589 	4929 	0.054025
36.39 	0.060963 	4921 	0.059515
36.43 	0.057833 	4928 	0.056268
36.47 	0.059360 	4936 	0.057936
36.51 	0.054936 	4933 	0.054224
36.55 	0.052973 	4927 	0.052141
36.59 	0.057097 	4939 	0.055911
36.63 	0.058609 	4931 	0.058015
36.67 	0.058215 	4930 	0.057383
36.71 	0.064215 	4921 	0.063143
36.75 	0.056634 	4944 	0.055449
36.79 	0.053648 	4921 	0.052457
36.83 	0.057375 	4915 	0.056660
36.87 	0.055016 	4944 	0.054661
36.91 	0.055050 	4941 	0.054457
36.95 	0.055342 	4933 	0.054372
36.99 	0.053901 	4935 	0.052595
37.03 	0.061738 	4924 	0.060648
37.07 	0.052077 	4935 	0.051365
37.11 	0.059980 	4935 	0.058180
37.15 	0.053779 	4909 	0.052705
37.19 	0.052792 	4925 	0.051840
37.23 	0.055917 	4918 	0.055202
37.27 	0.057213 	4894 	0.056495
37.31 	0.058156 	4935 	0.056356
37.35 	0.059133 	4938 	0.057828
37.39 	0.050091 	4931 	0.049378
37.43 	0.053528 	4932 	0.053053
37.47 	0.054169 	4929 	0.054050
37.51 	0.057166 	4933 	0.056572
37.55 	0.060243 	4930 	0.059887
37.59 	0.058596 	4915 	0.057027
37.63 	0.058142 	4919 	0.056832
37.67 	0.057708 	4904 	0.056991
37.71 	0.052952 	4929 	0.052100
37.75 	0.050202 	4940 	0.049965
37.79 	0.050710 	4930 	0.050235
37.83 	0.050000 	4920 	0.049286
37.87 	0.060336 	4939 	0.059269
37.91 	0.058012 	4930 	0.057180
37.95 	0.055680 	4921 	0.055085
37.99 	0.057207 	4912 	0.055776
38.03 	0.056631 	4909 	0.055915
38.07 	0.055408 	4909 	0.054454
38.11 	0.063222 	4935 	0.062628
38.15 	0.061407 	4918 	0.059839
38.19 	0.057809 	4930 	0.057453
38.23 	0.064196 	4938 	0.063010
38.27 	0.068763 	4930 	0.067693
38.31 	0.067790 	4927 	0.066601
38.35 	0.071429 	4928 	0.069131
38.39 	0.079853 	4909 	0.077347
38.43 	0.077502 	4916 	0.075715
38.47 	0.082128 	4907 	0.080456
38.51 	0.078670 	4932 	0.077482
38.55 	0.074959 	4936 	0.073397
38.59 	0.079204 	4924 	0.078252
38.63 	0.075751 	4924 	0.074324
38.67 	0.072109 	4937 	0.071041
38.71 	0.072299 	4924 	0.070633
38.75 	0.058453 	4927 	0.057502
38.79 	0.059789 	4934 	0.058602
38.83 	0.055702 	4919 	0.054750
38.87 	0.060680 	4911 	0.060084
38.91 	0.056700 	4903 	0.055983
38.95 	0.050630 	4918 	0.050154
38.99 	0.046182 	4937 	0.045332
39.03 	0.048237 	4934 	0.047881
39.07 	0.055849 	4924 	0.054421
39.11 	0.046035 	4931 	0.045916
39.15 	0.045982 	4915 	0.045863
39.19 	0.044539 	4917 	0.043705
39.23 	0.044467 	4925 	0.043753
39.27 	0.045010 	4910 	0.044772
39.31 	0.051802 	4884 	0.051202
39.35 	0.043972 	4935 	0.043497
39.39 	0.040373 	4929 	0.039779
39.43 	0.045814 	4933 	0.045339
39.47 	0.041844 	4923 	0.041487
39.51 	0.047116 	4924 	0.046521
39.55 	0.045538 	4919 	0.045300
39.59 	0.044585 	4912 	0.044108
39.63 	0.048964 	4922 	0.047774
39.67 	0.040912 	4913 	0.040793
39.71 	0.048212 	4895 	0.047494
39.75 	0.045657 	4928 	0.044687
39.79 	0.044052 	4926 	0.043220
39.83 	0.042562 	4934 	0.042206
39.87 	0.046294 	4925 	0.045918
39.91 	0.042462 	4922 	0.041867
39.95 	0.046592 	4915 	0.045877
39.99 	0.041160 	4932 	0.040685
40.03 	0.041802 	4928 	0.041326
40.07 	0.042860 	4923 	0.042384
40.11 	0.041294 	4916 	0.040698
40.15 	0.043965 	4913 	0.043250
40.19 	0.041388 	4929 	0.040556
40.23 	0.043593 	4932 	0.042999
40.27 	0.043954 	4937 	0.043005
40.31 	0.047378 	4939 	0.046073
40.35 	0.048587 	4919 	0.047754
40.39 	0.043602 	4931 	0.043245
40.43 	0.042462 	4922 	0.042224
40.47 	0.044734 	4918 	0.044138
40.51 	0.043072 	4922 	0.042596
40.55 	0.045029 	4908 	0.044173
40.59 	0.040713 	4937 	0.039764
40.63 	0.046247 	4930 	0.046129
40.67 	0.035685 	4932 	0.034735
40.71 	0.043998 	4932 	0.042929
40.75 	0.040357 	4931 	0.040001
40.79 	0.040008 	4924 	0.039651
40.83 	0.041802 	4928 	0.041564
40.87 	0.041396 	4928 	0.040921
40.91 	0.043876 	4923 	0.043519
40.95 	0.040505 	4913 	0.040266
40.99 	0.038587 	4924 	0.038230
41.03 	0.041998 	4905 	0.041281
41.07 	0.044625 	4930 	0.044031
41.11 	0.038501 	4935 	0.037907
41.15 	0.040478 	4941 	0.040241
41.19 	0.040162 	4930 	0.039568
41.23 	0.044341 	4939 	0.043728
41.27 	0.043602 	4931 	0.043127
41.31 	0.039530 	4933 	0.038936
41.35 	0.035237 	4938 	0.035118
41.39 	0.043787 	4933 	0.043430
41.43 	0.042605 	4929 	0.042130
41.47 	0.040195 	4926 	0.039600
41.51 	0.043725 	4940 	0.042776
41.55 	0.041337 	4935 	0.040744
41.59 	0.040341 	4933 	0.039984
41.63 	0.040705 	4938 	0.040349
41.67 	0.046761 	4940 	0.046168
41.71 	0.044994 	4934 	0.044638
41.75 	0.036924 	4929 	0.036449
41.79 	0.033374 	4944 	0.032781
41.83 	0.040787 	4928 	0.040550
41.87 	0.041540 	4935 	0.040828
41.91 	0.039911 	4936 	0.039792
41.95 	0.046035 	4931 	0.045798
41.99 	0.039551 	4905 	0.038715
42.03 	0.044341 	4939 	0.044104
42.07 	0.037472 	4937 	0.037472
42.11 	0.041658 	4945 	0.040573
42.15 	0.039490 	4938 	0.039015
42.19 	0.041565 	4908 	0.041207
42.23 	0.039248 	4892 	0.038769
42.27 	0.042265 	4874 	0.041784
42.31 	0.034604 	4855 	0.034000
42.35 	0.037205 	4838 	0.036842
42.39 	0.036012 	4804 	0.035260
42.43 	0.040067 	4792 	0.039822
42.47 	0.037356 	4765 	0.036864
42.51 	0.037318 	4743 	0.036927
42.55 	0.036746 	4708 	0.036746
42.59 	0.037217 	4729 	0.036969
42.63 	0.034402 	4709 	0.033780
42.67 	0.039496 	4684 	0.039121
42.71 	0.044178 	4663 	0.043675
42.75 	0.040286 	4617 	0.039905
42.79 	0.038193 	4582 	0.038065
42.83 	0.042328 	4536 	0.041811
42.87 	0.035786 	4499 	0.035374
42.91 	0.042639 	4456 	0.041719
42.95 	0.037364 	4416 	0.036966
42.99 	0.040593 	4385 	0.040593
43.03 	0.035772 	4333 	0.035637
43.07 	0.037709 	4296 	0.037164
43.11 	0.043478 	4255 	0.042790
43.15 	0.035663 	4206 	0.035385
43.19 	0.044111 	4194 	0.043692
43.23 	0.032258 	4154 	0.031976
43.27 	0.043605 	4105 	0.043177
43.31 	0.039470 	4079 	0.039470
43.35 	0.037450 	4032 	0.037450
43.39 	0.034983 	4002 	0.034543
43.43 	0.039394 	3960 	0.038950
43.47 	0.031370 	3921 	0.031071
43.51 	0.036110 	3877 	0.035959
43.55 	0.035425 	2964 	0.035227
43.59 	0.038946 	1746 	0.038275
43.63 	0.029970 	1001 	0.029970
43.67 	0.025896 	502 	0.024730
43.71 	0.029289 	239 	0.029289
43.75 	0.000000 	16 	0.000000