File: Example_Data/25SC_s1_0004.004.dat
#F C:\frames\spec\25SC_s1_0004.004
#C title =s:4 frm:4 25SC_s1
#C wavelength =0.15406

#S 1  fr_average C:\frames\spec\25SC_s1_0004.004 C:\win32app\speccom\mask.axs chi 0 180 0 360 0.02
#C 2 theta =0.000000 to 180 deg
#C   q   =0.000000 to 81.568 nm^-1
#C  chi  =0.000000 to 360 deg
#C collumns:
#C  1 position (2theta or chi in degrees)
#C  2 average intensity (sum of all counts in the region divided with number of pixels)
#C  3 Number of pixels in region)
#C  4 error (sum of sqrt(intensity) for all pixels divided by number)
#N 4
#L TTh  Int  N_pix  Err
32.99 	0.065574 	61 	0.065574
33.03 	0.056075 	1391 	0.054811
33.07 	0.061463 	2050 	0.059749
33.11 	0.068244 	2579 	0.067562
33.15 	0.058019 	2999 	0.057433
33.19 	0.055356 	3342 	0.054830
33.23 	0.057905 	3523 	0.056908
33.27 	0.064187 	3630 	0.063031
33.31 	0.054098 	3660 	0.053298
33.35 	0.067948 	3694 	0.066838
33.39 	0.065165 	3729 	0.064354
33.43 	0.066206 	3761 	0.065583
33.47 	0.056345 	3798 	0.055574
33.51 	0.056356 	3815 	0.055282
33.55 	0.061150 	3843 	0.060363
33.59 	0.066753 	3880 	0.065394
33.63 	0.064557 	3919 	0.063511
33.67 	0.062215 	3954 	0.060734
33.71 	0.058616 	3975 	0.057585
33.75 	0.062516 	3999 	0.061344
33.79 	0.058154 	4041 	0.057284
33.83 	0.051605 	4050 	0.050569
33.87 	0.058380 	4111 	0.057810
33.91 	0.058086 	4149 	0.057380
33.95 	0.061229 	4181 	0.060109
33.99 	0.059762 	4200 	0.059204
34.03 	0.060085 	4244 	0.058981
34.07 	0.059747 	4268 	0.058649
34.11 	0.059507 	4302 	0.058554
34.15 	0.058185 	4331 	0.057374
34.19 	0.056625 	4362 	0.056088
34.23 	0.060779 	4393 	0.059578
34.27 	0.062641 	4422 	0.061449
34.31 	0.059444 	4458 	0.058261
34.35 	0.061552 	4484 	0.060094
34.39 	0.063527 	4502 	0.062877
34.43 	0.059264 	4539 	0.057974
34.47 	0.065984 	4592 	0.064709
34.51 	0.062527 	4606 	0.061107
34.55 	0.059444 	4643 	0.057910
34.59 	0.059893 	4675 	0.058515
34.63 	0.056263 	4710 	0.055766
34.67 	0.063278 	4741 	0.061919
34.71 	0.063156 	4766 	0.062172
34.75 	0.060108 	4808 	0.058768
34.79 	0.055970 	4824 	0.054756
34.83 	0.067051 	4862 	0.065364
34.87 	0.067379 	4868 	0.066055
34.91 	0.056944 	4882 	0.056224
34.95 	0.061350 	4890 	0.060391
34.99 	0.054319 	4897 	0.053482
35.03 	0.059073 	4943 	0.057651
35.07 	0.068826 	4940 	0.067502
35.11 	0.063271 	4947 	0.061613
35.15 	0.061778 	4937 	0.060335
35.19 	0.061514 	4942 	0.060091
35.23 	0.064105 	4945 	0.063020
35.27 	0.064875 	4948 	0.063809
35.31 	0.066896 	4933 	0.066065
35.35 	0.068191 	4942 	0.067105
35.39 	0.059050 	4945 	0.057727
35.43 	0.052706 	4933 	0.052350
35.47 	0.055972 	4931 	0.054903
35.51 	0.050954 	4926 	0.050241
35.55 	0.064105 	4945 	0.062921
35.59 	0.062083 	4945 	0.061254
35.63 	0.063929 	4943 	0.062388
35.67 	0.057062 	4942 	0.056351
35.71 	0.063601 	4937 	0.061703
35.75 	0.063882 	4931 	0.062931
35.79 	0.064477 	4932 	0.063764
35.83 	0.065507 	4946 	0.063613
35.87 	0.060126 	4923 	0.059055
35.91 	0.067790 	4927 	0.066720
35.95 	0.061013 	4917 	0.059702
35.99 	0.056489 	4939 	0.055540
36.03 	0.057455 	4943 	0.056625
36.07 	0.059729 	4939 	0.058286
36.11 	0.063096 	4929 	0.061789
36.15 	0.055679 	4939 	0.054612
36.19 	0.060931 	4940 	0.059745
36.23 	0.063830 	4935 	0.063236
36.27 	0.063959 	4925 	0.062532
36.31 	0.064732 	4928 	0.064138
36.35 	0.064719 	4929 	0.063273
36.39 	0.066653 	4921 	0.065324
36.43 	0.061891 	4928 	0.061059
36.47 	0.060170 	4936 	0.059201
36.51 	0.061220 	4933 	0.059914
36.55 	0.064136 	4927 	0.063661
36.59 	0.060741 	4939 	0.059199
36.63 	0.060434 	4931 	0.059464
36.67 	0.057201 	4930 	0.055755
36.71 	0.061166 	4921 	0.059976
36.75 	0.065534 	4944 	0.064586
36.79 	0.053851 	4921 	0.052780
36.83 	0.063072 	4915 	0.061880
36.87 	0.055825 	4944 	0.055114
36.91 	0.055859 	4941 	0.055385
36.95 	0.057369 	4933 	0.056419
36.99 	0.057345 	4935 	0.056871
37.03 	0.058489 	4924 	0.057399
37.07 	0.055927 	4935 	0.054602
37.11 	0.060588 	4935 	0.059401
37.15 	0.055612 	4909 	0.055015
37.19 	0.060711 	4925 	0.059026
37.23 	0.055714 	4918 	0.054880
37.27 	0.057417 	4894 	0.056340
37.31 	0.056738 	4935 	0.055056
37.35 	0.059741 	4938 	0.058673
37.39 	0.051916 	4931 	0.051204
37.43 	0.056367 	4932 	0.055298
37.47 	0.058835 	4929 	0.057647
37.51 	0.055747 	4933 	0.054678
37.55 	0.054361 	4930 	0.053410
37.59 	0.056765 	4915 	0.055812
37.63 	0.058345 	4919 	0.057154
37.67 	0.063622 	4904 	0.062049
37.71 	0.052546 	4929 	0.051219
37.75 	0.056478 	4940 	0.055648
37.79 	0.053550 	4930 	0.052837
37.83 	0.061585 	4920 	0.061109
37.87 	0.056489 	4939 	0.055896
37.91 	0.063895 	4930 	0.062231
37.95 	0.052835 	4921 	0.052121
37.99 	0.054967 	4912 	0.054610
38.03 	0.059686 	4909 	0.058235
38.07 	0.056631 	4909 	0.055557
38.11 	0.063222 	4935 	0.062391
38.15 	0.061407 	4918 	0.060196
38.19 	0.059229 	4930 	0.058160
38.23 	0.059133 	4938 	0.057947
38.27 	0.062069 	4930 	0.060762
38.31 	0.063528 	4927 	0.063171
38.35 	0.064529 	4928 	0.063222
38.39 	0.069668 	4909 	0.068833
38.43 	0.076892 	4916 	0.074628
38.47 	0.067862 	4907 	0.066072
38.51 	0.072993 	4932 	0.071449
38.55 	0.072326 	4936 	0.071139
38.59 	0.068846 	4924 	0.067280
38.63 	0.059708 	4924 	0.058875
38.67 	0.063601 	4937 	0.062277
38.71 	0.063160 	4924 	0.061455
38.75 	0.053785 	4927 	0.052834
38.79 	0.065869 	4934 	0.063575
38.83 	0.058955 	4919 	0.058002
38.87 	0.059662 	4911 	0.058946
38.91 	0.056496 	4903 	0.055779
38.95 	0.054087 	4918 	0.052539
38.99 	0.060361 	4937 	0.059293
39.03 	0.055938 	4934 	0.054514
39.07 	0.060114 	4924 	0.058805
39.11 	0.058609 	4931 	0.058015
39.15 	0.060224 	4915 	0.058178
39.19 	0.056539 	4917 	0.055347
39.23 	0.059898 	4925 	0.059066
39.27 	0.052749 	4910 	0.051676
39.31 	0.047912 	4884 	0.047312
39.35 	0.058967 	4935 	0.058254
39.39 	0.054575 	4929 	0.053505
39.43 	0.057166 	4933 	0.056335
39.47 	0.053626 	4923 	0.052674
39.51 	0.053615 	4924 	0.053139
39.55 	0.057125 	4919 	0.056649
39.59 	0.063925 	4912 	0.062136
39.63 	0.063795 	4922 	0.062248
39.67 	0.061470 	4913 	0.060019
39.71 	0.061287 	4895 	0.060569
39.75 	0.057630 	4928 	0.056798
39.79 	0.056435 	4926 	0.055603
39.83 	0.056141 	4934 	0.055073
39.87 	0.058680 	4925 	0.057610
39.91 	0.061357 	4922 	0.060524
39.95 	0.055341 	4915 	0.054268
39.99 	0.059002 	4932 	0.058290
40.03 	0.051745 	4928 	0.050556
40.07 	0.057282 	4923 	0.056449
40.11 	0.059398 	4916 	0.058445
40.15 	0.051496 	4913 	0.050403
40.19 	0.054372 	4929 	0.053897
40.23 	0.054745 	4932 	0.053676
40.27 	0.053676 	4937 	0.052826
40.31 	0.051022 	4939 	0.050785
40.35 	0.051230 	4919 	0.050634
40.39 	0.053133 	4931 	0.052539
40.43 	0.054653 	4922 	0.053819
40.47 	0.051647 	4918 	0.050694
40.51 	0.055059 	4922 	0.054702
40.55 	0.051752 	4908 	0.050917
40.59 	0.053879 	4937 	0.053167
40.63 	0.053550 	4930 	0.052461
40.67 	0.046837 	4932 	0.046243
40.71 	0.055150 	4932 	0.054319
40.75 	0.052930 	4931 	0.052455
40.79 	0.052803 	4924 	0.051970
40.83 	0.048498 	4928 	0.048142
40.87 	0.047890 	4928 	0.047414
40.91 	0.050985 	4923 	0.050509
40.95 	0.050478 	4913 	0.050001
40.99 	0.052803 	4924 	0.051970
41.03 	0.051988 	4905 	0.051271
41.07 	0.053753 	4930 	0.052802
41.11 	0.055117 	4935 	0.054523
41.15 	0.052621 	4941 	0.051653
41.19 	0.053347 	4930 	0.052515
41.23 	0.051022 	4939 	0.050074
41.27 	0.054350 	4931 	0.053281
41.31 	0.052301 	4933 	0.051351
41.35 	0.057108 	4938 	0.056001
41.39 	0.058788 	4933 	0.057957
41.43 	0.049503 	4929 	0.048671
41.47 	0.051360 	4926 	0.050508
41.51 	0.049595 	4940 	0.049239
41.55 	0.048835 	4935 	0.048479
41.59 	0.054531 	4933 	0.053324
41.63 	0.046780 	4938 	0.046661
41.67 	0.052429 	4940 	0.052192
41.71 	0.053506 	4934 	0.052675
41.75 	0.048489 	4929 	0.047894
41.79 	0.048746 	4944 	0.048154
41.83 	0.051948 	4928 	0.051591
41.87 	0.054711 	4935 	0.054236
41.91 	0.052472 	4936 	0.051997
41.95 	0.049686 	4931 	0.049567
41.99 	0.049949 	4905 	0.048994
42.03 	0.047783 	4939 	0.047309
42.07 	0.047600 	4937 	0.047125
42.11 	0.049343 	4945 	0.048632
42.15 	0.049008 	4938 	0.048533
42.19 	0.049715 	4908 	0.048879
42.23 	0.050695 	4892 	0.049977
42.27 	0.048625 	4874 	0.048505
42.31 	0.051699 	4855 	0.051096
42.35 	0.049607 	4838 	0.049486
42.39 	0.046628 	4804 	0.046018
42.43 	0.051962 	4792 	0.050861
42.47 	0.046590 	4765 	0.046221
42.51 	0.047438 	4743 	0.046450
42.55 	0.050977 	4708 	0.050604
42.59 	0.048848 	4729 	0.048228
42.63 	0.051391 	4709 	0.050500
42.67 	0.053800 	4684 	0.052529
42.71 	0.046322 	4663 	0.045945
42.75 	0.044834 	4617 	0.044707
42.79 	0.048014 	4582 	0.047630
42.83 	0.048060 	4536 	0.047802
42.87 	0.046010 	4499 	0.044969
42.91 	0.050269 	4456 	0.049743
42.95 	0.047328 	4416 	0.046643
42.99 	0.053592 	4385 	0.052657
43.03 	0.055620 	4333 	0.055214
43.07 	0.045391 	4296 	0.044437
43.11 	0.051469 	4255 	0.050368
43.15 	0.045887 	4206 	0.045469
43.19 	0.048402 	4194 	0.047564
43.23 	0.045498 	4154 	0.044629
43.27 	0.052862 	4105 	0.052006
43.31 	0.051974 	4079 	0.051686
43.35 	0.050347 	4032 	0.049621
43.39 	0.049725 	4002 	0.049432
43.43 	0.048737 	3960 	0.048294
43.47 	0.056873 	3921 	0.055678
43.51 	0.049265 	3877 	0.048182
43.55 	0.047233 	2964 	0.045850
43.59 	0.048683 	1746 	0.046670
43.63 	0.046953 	1001 	0.046368
43.67 	0.051793 	502 	0.051793
43.71 	0.029289 	239 	0.029289
43.75 	0.000000 	16 	0.000000