File: Example_Data/25SC_s1_0005.001.dat
#F C:\frames\spec\25SC_s1_0005.001
#C title =s:5 frm:1 25SC_s1
#C wavelength =0.15406

#S 1  fr_average C:\frames\spec\25SC_s1_0005.001 C:\win32app\speccom\mask.axs chi 0 180 0 360 0.02
#C 2 theta =0.000000 to 180 deg
#C   q   =0.000000 to 81.568 nm^-1
#C  chi  =0.000000 to 360 deg
#C collumns:
#C  1 position (2theta or chi in degrees)
#C  2 average intensity (sum of all counts in the region divided with number of pixels)
#C  3 Number of pixels in region)
#C  4 error (sum of sqrt(intensity) for all pixels divided by number)
#N 4
#L TTh  Int  N_pix  Err
32.99 	0.000000 	61 	0.000000
33.03 	0.066139 	1391 	0.065718
33.07 	0.057561 	2050 	0.056704
33.11 	0.064366 	2579 	0.062095
33.15 	0.065355 	2999 	0.064574
33.19 	0.059246 	3342 	0.058194
33.23 	0.058757 	3523 	0.057925
33.27 	0.053994 	3630 	0.052865
33.31 	0.054372 	3660 	0.054212
33.35 	0.057390 	3694 	0.056122
33.39 	0.056047 	3729 	0.055576
33.43 	0.052911 	3761 	0.052600
33.47 	0.059505 	3798 	0.058708
33.51 	0.060026 	3815 	0.058798
33.55 	0.056466 	3843 	0.055704
33.59 	0.058763 	3880 	0.058461
33.63 	0.058178 	3919 	0.057580
33.67 	0.066262 	3954 	0.064484
33.71 	0.055094 	3975 	0.054358
33.75 	0.058265 	3999 	0.056653
33.79 	0.054937 	4041 	0.054212
33.83 	0.052346 	4050 	0.051622
33.87 	0.054488 	4111 	0.054060
33.91 	0.056640 	4149 	0.055934
33.95 	0.057642 	4181 	0.057198
33.99 	0.054286 	4200 	0.053728
34.03 	0.052780 	4244 	0.051239
34.07 	0.058810 	4268 	0.057300
34.11 	0.062297 	4302 	0.060776
34.15 	0.056800 	4331 	0.055988
34.19 	0.052270 	4362 	0.052001
34.23 	0.060323 	4393 	0.058723
34.27 	0.060832 	4422 	0.060302
34.31 	0.063257 	4458 	0.061659
34.35 	0.057538 	4484 	0.056885
34.39 	0.055087 	4502 	0.054046
34.43 	0.053756 	4539 	0.052724
34.47 	0.056838 	4592 	0.055414
34.51 	0.056665 	4606 	0.055393
34.55 	0.052768 	4643 	0.051738
34.59 	0.054973 	4675 	0.053971
34.63 	0.058386 	4710 	0.057495
34.67 	0.055895 	4741 	0.055525
34.71 	0.053714 	4766 	0.053099
34.75 	0.055324 	4808 	0.054817
34.79 	0.053483 	4824 	0.052754
34.83 	0.056561 	4862 	0.055838
34.87 	0.054848 	4868 	0.054487
34.91 	0.056944 	4882 	0.056464
34.95 	0.056033 	4890 	0.055434
34.99 	0.061875 	4897 	0.061037
35.03 	0.062108 	4943 	0.061634
35.07 	0.058704 	4940 	0.057499
35.11 	0.051546 	4947 	0.050362
35.15 	0.063196 	4937 	0.062128
35.19 	0.059895 	4942 	0.059302
35.23 	0.050152 	4945 	0.049678
35.27 	0.057195 	4948 	0.056484
35.31 	0.060815 	4933 	0.059509
35.35 	0.060502 	4942 	0.058487
35.39 	0.060061 	4945 	0.059468
35.43 	0.054733 	4933 	0.054496
35.47 	0.063273 	4931 	0.061729
35.51 	0.061104 	4926 	0.059440
35.55 	0.058847 	4945 	0.057426
35.59 	0.057027 	4945 	0.055961
35.63 	0.054420 	4943 	0.053235
35.67 	0.059692 	4942 	0.058507
35.71 	0.054689 	4937 	0.054452
35.75 	0.054756 	4931 	0.053805
35.79 	0.056569 	4932 	0.055857
35.83 	0.061262 	4946 	0.060196
35.87 	0.061548 	4923 	0.060834
35.91 	0.058250 	4927 	0.057280
35.95 	0.056539 	4917 	0.055328
35.99 	0.060134 	4939 	0.058691
36.03 	0.061097 	4943 	0.059911
36.07 	0.060539 	4939 	0.060183
36.11 	0.059850 	4929 	0.058899
36.15 	0.059931 	4939 	0.059220
36.19 	0.057287 	4940 	0.057050
36.23 	0.060790 	4935 	0.060078
36.27 	0.059898 	4925 	0.058333
36.31 	0.062906 	4928 	0.061955
36.35 	0.061270 	4929 	0.060200
36.39 	0.058525 	4921 	0.057572
36.43 	0.058442 	4928 	0.057372
36.47 	0.059360 	4936 	0.058173
36.51 	0.061423 	4933 	0.060236
36.55 	0.064339 	4927 	0.063388
36.59 	0.056894 	4939 	0.055945
36.63 	0.056175 	4931 	0.055344
36.67 	0.055984 	4930 	0.055014
36.71 	0.061776 	4921 	0.061062
36.75 	0.055016 	4944 	0.054068
36.79 	0.063605 	4921 	0.062772
36.83 	0.059613 	4915 	0.058044
36.87 	0.056230 	4944 	0.055400
36.91 	0.057883 	4941 	0.056797
36.95 	0.056558 	4933 	0.055845
36.99 	0.060588 	4935 	0.059875
37.03 	0.065394 	4924 	0.064036
37.07 	0.060182 	4935 	0.058501
37.11 	0.061601 	4935 	0.060533
37.15 	0.061112 	4909 	0.060396
37.19 	0.058274 	4925 	0.057085
37.23 	0.055510 	4918 	0.054796
37.27 	0.060687 	4894 	0.059849
37.31 	0.060182 	4935 	0.059233
37.35 	0.063994 	4938 	0.062570
37.39 	0.054350 	4931 	0.053756
37.43 	0.060016 	4932 	0.058710
37.47 	0.059444 	4929 	0.058493
37.51 	0.054328 	4933 	0.053378
37.55 	0.054767 	4930 	0.053935
37.59 	0.048220 	4915 	0.047981
37.63 	0.049807 	4919 	0.049331
37.67 	0.054038 	4904 	0.052843
37.71 	0.054372 	4929 	0.053897
37.75 	0.052834 	4940 	0.052004
37.79 	0.055578 	4930 	0.055103
37.83 	0.056098 	4920 	0.055383
37.87 	0.056084 	4939 	0.055135
37.91 	0.057606 	4930 	0.057012
37.95 	0.051616 	4921 	0.051020
37.99 	0.055375 	4912 	0.054520
38.03 	0.048686 	4909 	0.047731
38.07 	0.053168 	4909 	0.052452
38.11 	0.053901 	4935 	0.052714
38.15 	0.054087 	4918 	0.053134
38.19 	0.050304 	4930 	0.049354
38.23 	0.057716 	4938 	0.057004
38.27 	0.056795 	4930 	0.054894
38.31 	0.063933 	4927 	0.062626
38.35 	0.063312 	4928 	0.062598
38.39 	0.068853 	4909 	0.067063
38.43 	0.066314 	4916 	0.065480
38.47 	0.067862 	4907 	0.065952
38.51 	0.075223 	4932 	0.073422
38.55 	0.077391 	4936 	0.075254
38.59 	0.080829 	4924 	0.079163
38.63 	0.070674 	4924 	0.069485
38.67 	0.071096 	4937 	0.069415
38.71 	0.072096 	4924 	0.070906
38.75 	0.059671 	4927 	0.058839
38.79 	0.064451 	4934 	0.063244
38.83 	0.055906 	4919 	0.055072
38.87 	0.057829 	4911 	0.057114
38.91 	0.049154 	4903 	0.048437
38.95 	0.051444 	4918 	0.051086
38.99 	0.051651 	4937 	0.050702
39.03 	0.047021 	4934 	0.046546
39.07 	0.053818 	4924 	0.052847
39.11 	0.042791 	4931 	0.041821
39.15 	0.048423 	4915 	0.047589
39.19 	0.044336 	4917 	0.043264
39.23 	0.046497 	4925 	0.045903
39.27 	0.047454 	4910 	0.047077
39.31 	0.048526 	4884 	0.047926
39.35 	0.044580 	4935 	0.044105
39.39 	0.044025 	4929 	0.043174
39.43 	0.046625 	4933 	0.045912
39.47 	0.046516 	4923 	0.045802
39.51 	0.049350 	4924 	0.048517
39.55 	0.043911 	4919 	0.043177
39.59 	0.044381 	4912 	0.044262
39.63 	0.046119 	4922 	0.045643
39.67 	0.043761 	4913 	0.043523
39.71 	0.042901 	4895 	0.042542
39.75 	0.041802 	4928 	0.041445
39.79 	0.042022 	4926 	0.041665
39.83 	0.049250 	4934 	0.048518
39.87 	0.044264 	4925 	0.043788
39.91 	0.044088 	4922 	0.043374
39.95 	0.040488 	4915 	0.040012
39.99 	0.042174 	4932 	0.041817
40.03 	0.043831 	4928 	0.043356
40.07 	0.043266 	4923 	0.042790
40.11 	0.042718 	4916 	0.042360
40.15 	0.042540 	4913 	0.042063
40.19 	0.043011 	4929 	0.042516
40.23 	0.041971 	4932 	0.040902
40.27 	0.045372 	4937 	0.044403
40.31 	0.037052 	4939 	0.036578
40.35 	0.038016 	4919 	0.037540
40.39 	0.045224 	4931 	0.044749
40.43 	0.046119 	4922 	0.045762
40.47 	0.044124 	4918 	0.043885
40.51 	0.042666 	4922 	0.041951
40.55 	0.037897 	4908 	0.037659
40.59 	0.043954 	4937 	0.043598
40.63 	0.038540 	4930 	0.038183
40.67 	0.045823 	4932 	0.045467
40.71 	0.043593 	4932 	0.042861
40.75 	0.041777 	4931 	0.041301
40.79 	0.045085 	4924 	0.044372
40.83 	0.042614 	4928 	0.041544
40.87 	0.039773 	4928 	0.039297
40.91 	0.040626 	4923 	0.039912
40.95 	0.047222 	4913 	0.046029
40.99 	0.041024 	4924 	0.040429
41.03 	0.040775 	4905 	0.040178
41.07 	0.045842 	4930 	0.045604
41.11 	0.042148 	4935 	0.041673
41.15 	0.036632 	4941 	0.036158
41.19 	0.044219 	4930 	0.043625
41.23 	0.040899 	4939 	0.040049
41.27 	0.043602 	4931 	0.043127
41.31 	0.043179 	4933 	0.042347
41.35 	0.038477 	4938 	0.038240
41.39 	0.040341 	4933 	0.039984
41.43 	0.044634 	4929 	0.043782
41.47 	0.048315 	4926 	0.047364
41.51 	0.039676 	4940 	0.038965
41.55 	0.047011 	4935 	0.046180
41.59 	0.040746 	4933 	0.040034
41.63 	0.041110 	4938 	0.040161
41.67 	0.040891 	4940 	0.040772
41.71 	0.039724 	4934 	0.039487
41.75 	0.041793 	4929 	0.041080
41.79 	0.035599 	4944 	0.035243
41.83 	0.043628 	4928 	0.043391
41.87 	0.040324 	4935 	0.039968
41.91 	0.040519 	4936 	0.040519
41.95 	0.045427 	4931 	0.044952
41.99 	0.046279 	4905 	0.045563
42.03 	0.038874 	4939 	0.038400
42.07 	0.048613 	4937 	0.047782
42.11 	0.037209 	4945 	0.036854
42.15 	0.035642 	4938 	0.035523
42.19 	0.038305 	4908 	0.037708
42.23 	0.042314 	4892 	0.041596
42.27 	0.036725 	4874 	0.036485
42.31 	0.037693 	4855 	0.037210
42.35 	0.050227 	4838 	0.049259
42.39 	0.037677 	4804 	0.037555
42.43 	0.037145 	4792 	0.036534
42.47 	0.039664 	4765 	0.039172
42.51 	0.040481 	4743 	0.040357
42.55 	0.037808 	4708 	0.037310
42.59 	0.038909 	4729 	0.038413
42.63 	0.038437 	4709 	0.038064
42.67 	0.036294 	4684 	0.035919
42.71 	0.037101 	4663 	0.036598
42.75 	0.034438 	4617 	0.034438
42.79 	0.039502 	4582 	0.038991
42.83 	0.041226 	4536 	0.040838
42.87 	0.036230 	4499 	0.036100
42.91 	0.039048 	4456 	0.038523
42.95 	0.038270 	4416 	0.037872
42.99 	0.038540 	4385 	0.038407
43.03 	0.038541 	4333 	0.038001
43.07 	0.038408 	4296 	0.037590
43.11 	0.045828 	4255 	0.045553
43.15 	0.034475 	4206 	0.034057
43.19 	0.041726 	4194 	0.040749
43.23 	0.038517 	4154 	0.038094
43.27 	0.035323 	4105 	0.034609
43.31 	0.038245 	4079 	0.037670
43.35 	0.038938 	4032 	0.038648
43.39 	0.034483 	4002 	0.034336
43.43 	0.044444 	3960 	0.043853
43.47 	0.043866 	3921 	0.042970
43.51 	0.036368 	3877 	0.036368
43.55 	0.033063 	2964 	0.033063
43.59 	0.042383 	1746 	0.042047
43.63 	0.033966 	1001 	0.032796
43.67 	0.037849 	502 	0.036682
43.71 	0.033473 	239 	0.033473
43.75 	0.000000 	16 	0.000000