File: Example_Data/25SC_s1_0012.004.dat
#F C:\frames\spec\25SC_s1_0012.004
#C title =s:12 frm:4 25SC_s1
#C wavelength =0.15406

#S 1  fr_average C:\frames\spec\25SC_s1_0012.004 C:\win32app\speccom\mask.axs chi 0 180 0 360 0.02
#C 2 theta =0.000000 to 180 deg
#C   q   =0.000000 to 81.568 nm^-1
#C  chi  =0.000000 to 360 deg
#C collumns:
#C  1 position (2theta or chi in degrees)
#C  2 average intensity (sum of all counts in the region divided with number of pixels)
#C  3 Number of pixels in region)
#C  4 error (sum of sqrt(intensity) for all pixels divided by number)
#N 4
#L TTh  Int  N_pix  Err
32.99 	0.032787 	61 	0.032787
33.03 	0.056794 	1391 	0.055951
33.07 	0.058537 	2050 	0.058251
33.11 	0.066693 	2579 	0.065103
33.15 	0.072357 	2999 	0.070600
33.19 	0.048773 	3342 	0.048247
33.23 	0.054215 	3523 	0.053051
33.27 	0.068044 	3630 	0.066565
33.31 	0.063115 	3660 	0.062288
33.35 	0.053600 	3694 	0.052808
33.39 	0.068383 	3729 	0.067283
33.43 	0.054507 	3761 	0.053884
33.47 	0.062928 	3798 	0.062157
33.51 	0.059764 	3815 	0.058536
33.55 	0.057767 	3843 	0.056853
33.59 	0.061856 	3880 	0.060648
33.63 	0.059199 	3919 	0.058152
33.67 	0.058675 	3954 	0.058082
33.71 	0.065409 	3975 	0.064230
33.75 	0.057514 	3999 	0.056343
33.79 	0.060134 	4041 	0.059554
33.83 	0.057284 	4050 	0.056705
33.87 	0.054488 	4111 	0.053206
33.91 	0.056640 	4149 	0.055652
33.95 	0.063143 	4181 	0.062302
33.99 	0.058571 	4200 	0.057735
34.03 	0.055844 	4244 	0.054877
34.07 	0.057404 	4268 	0.056855
34.11 	0.057183 	4302 	0.056638
34.15 	0.063034 	4331 	0.061005
34.19 	0.056167 	4362 	0.055630
34.23 	0.062600 	4393 	0.061399
34.27 	0.062641 	4422 	0.061449
34.31 	0.060565 	4458 	0.059777
34.35 	0.059099 	4484 	0.058446
34.39 	0.061306 	4502 	0.060656
34.43 	0.059484 	4539 	0.058968
34.47 	0.059233 	4592 	0.058213
34.51 	0.062093 	4606 	0.060694
34.55 	0.062890 	4643 	0.061629
34.59 	0.070160 	4675 	0.068281
34.63 	0.071975 	4710 	0.070959
34.67 	0.059059 	4741 	0.057824
34.71 	0.062526 	4766 	0.061789
34.75 	0.061148 	4808 	0.059808
34.79 	0.054104 	4824 	0.052890
34.83 	0.063965 	4862 	0.062520
34.87 	0.061216 	4868 	0.059772
34.91 	0.058583 	4882 	0.057623
34.95 	0.052352 	4890 	0.051613
34.99 	0.062691 	4897 	0.061595
35.03 	0.059883 	4943 	0.057987
35.07 	0.058300 	4940 	0.057114
35.11 	0.058419 	4947 	0.057709
35.15 	0.054689 	4937 	0.053859
35.19 	0.063537 	4942 	0.061977
35.23 	0.056623 	4945 	0.055438
35.27 	0.065279 	4948 	0.063385
35.31 	0.058180 	4933 	0.056735
35.35 	0.062930 	4942 	0.061626
35.39 	0.058645 	4945 	0.057460
35.43 	0.062639 	4933 	0.060957
35.47 	0.054958 	4931 	0.054483
35.51 	0.062728 	4926 	0.062134
35.55 	0.064105 	4945 	0.062901
35.59 	0.058443 	4945 	0.057732
35.63 	0.061906 	4943 	0.060938
35.67 	0.062525 	4942 	0.061083
35.71 	0.064006 	4937 	0.062820
35.75 	0.057595 	4931 	0.055793
35.79 	0.062247 	4932 	0.060940
35.83 	0.061666 	4946 	0.060482
35.87 	0.060329 	4923 	0.059139
35.91 	0.066978 	4927 	0.065432
35.95 	0.058979 	4917 	0.057907
35.99 	0.057704 	4939 	0.057230
36.03 	0.065952 	4943 	0.064530
36.07 	0.058919 	4939 	0.057970
36.11 	0.061270 	4929 	0.059844
36.15 	0.058514 	4939 	0.056972
36.19 	0.059109 	4940 	0.058378
36.23 	0.056535 	4935 	0.055585
36.27 	0.058071 	4925 	0.055911
36.31 	0.061485 	4928 	0.060653
36.35 	0.062284 	4929 	0.061453
36.39 	0.061776 	4921 	0.060328
36.43 	0.055195 	4928 	0.054719
36.47 	0.059360 	4936 	0.058292
36.51 	0.054328 	4933 	0.053259
36.55 	0.061092 	4927 	0.060379
36.59 	0.061551 	4939 	0.060108
36.63 	0.061042 	4931 	0.059854
36.67 	0.062677 	4930 	0.061846
36.71 	0.060557 	4921 	0.059109
36.75 	0.055825 	4944 	0.054621
36.79 	0.065434 	4921 	0.064005
36.83 	0.059410 	4915 	0.058576
36.87 	0.053398 	4944 	0.052095
36.91 	0.060312 	4941 	0.058889
36.95 	0.054125 	4933 	0.053650
36.99 	0.063019 	4935 	0.062307
37.03 	0.051584 	4924 	0.050870
37.07 	0.060993 	4935 	0.059806
37.11 	0.058967 	4935 	0.057898
37.15 	0.058057 	4909 	0.057460
37.19 	0.058071 	4925 	0.057001
37.23 	0.058357 	4918 	0.057523
37.27 	0.056804 	4894 	0.055727
37.31 	0.055927 	4935 	0.055334
37.35 	0.053665 	4938 	0.052598
37.39 	0.059826 	4931 	0.058638
37.43 	0.056569 	4932 	0.056332
37.47 	0.063907 	4929 	0.062937
37.51 	0.052909 	4933 	0.052196
37.55 	0.055578 	4930 	0.054865
37.59 	0.057172 	4915 	0.055861
37.63 	0.056312 	4919 	0.055598
37.67 	0.052814 	4904 	0.052097
37.71 	0.058227 	4929 	0.057395
37.75 	0.059109 	4940 	0.058161
37.79 	0.056389 	4930 	0.055677
37.83 	0.053049 	4920 	0.052453
37.87 	0.054667 	4939 	0.053837
37.91 	0.055781 	4930 	0.055424
37.95 	0.049380 	4921 	0.048904
37.99 	0.055375 	4912 	0.053944
38.03 	0.063353 	4909 	0.062160
38.07 	0.060501 	4909 	0.059427
38.11 	0.056535 	4935 	0.055585
38.15 	0.060187 	4918 	0.058281
38.19 	0.063489 	4930 	0.062301
38.23 	0.062171 	4938 	0.060866
38.27 	0.064909 	4930 	0.064077
38.31 	0.062919 	4927 	0.062086
38.35 	0.062500 	4928 	0.061192
38.39 	0.065186 	4909 	0.063635
38.43 	0.068959 	4916 	0.066933
38.47 	0.067455 	4907 	0.066858
38.51 	0.062652 	4932 	0.061583
38.55 	0.068071 	4936 	0.066410
38.59 	0.063566 	4924 	0.062733
38.63 	0.058895 	4924 	0.058062
38.67 	0.056512 	4937 	0.055919
38.71 	0.061535 	4924 	0.060584
38.75 	0.062716 	4927 	0.061289
38.79 	0.057154 	4934 	0.055848
38.83 	0.060988 	4919 	0.060135
38.87 	0.049888 	4911 	0.049292
38.91 	0.059351 	4903 	0.057898
38.95 	0.058560 	4918 	0.057846
38.99 	0.051853 	4937 	0.051497
39.03 	0.056952 	4934 	0.056002
39.07 	0.056458 	4924 	0.055863
39.11 	0.055567 	4931 	0.054735
39.15 	0.056968 	4915 	0.056849
39.19 	0.055318 	4917 	0.054584
39.23 	0.051777 	4925 	0.051043
39.27 	0.052546 	4910 	0.051830
39.31 	0.053235 	4884 	0.051796
39.35 	0.057548 	4935 	0.056599
39.39 	0.057010 	4929 	0.055821
39.43 	0.055747 	4933 	0.054203
39.47 	0.058095 	4923 	0.056429
39.51 	0.055037 	4924 	0.053728
39.55 	0.060988 	4919 	0.059916
39.59 	0.057003 	4912 	0.056288
39.63 	0.056684 	4922 	0.055970
39.67 	0.062284 	4913 	0.060972
39.71 	0.052911 	4895 	0.052432
39.75 	0.047281 	4928 	0.046805
39.79 	0.057450 	4926 	0.056103
39.83 	0.058168 	4934 	0.057337
39.87 	0.058071 	4925 	0.057476
39.91 	0.060341 	4922 	0.059746
39.95 	0.053917 	4915 	0.052844
39.99 	0.053933 	4932 	0.052389
40.03 	0.060268 	4928 	0.059516
40.07 	0.046719 	4923 	0.045887
40.11 	0.055533 	4916 	0.054580
40.15 	0.056381 	4913 	0.055904
40.19 	0.055995 	4929 	0.054569
40.23 	0.055961 	4932 	0.055367
40.27 	0.048410 	4937 	0.046867
40.31 	0.043936 	4939 	0.043462
40.35 	0.054279 	4919 	0.053565
40.39 	0.044616 	4931 	0.044141
40.43 	0.052215 	4922 	0.051619
40.47 	0.052257 	4918 	0.051781
40.51 	0.055668 	4922 	0.054597
40.55 	0.051141 	4908 	0.050286
40.59 	0.057930 	4937 	0.057099
40.63 	0.054564 	4930 	0.053475
40.67 	0.056367 	4932 	0.055773
40.71 	0.054136 	4932 	0.053542
40.75 	0.062665 	4931 	0.061220
40.79 	0.058286 	4924 	0.057215
40.83 	0.051948 	4928 	0.050878
40.87 	0.054789 	4928 	0.054076
40.91 	0.056876 	4923 	0.055686
40.95 	0.056788 	4913 	0.055596
40.99 	0.050569 	4924 	0.049855
41.03 	0.055861 	4905 	0.054428
41.07 	0.050304 	4930 	0.049591
41.11 	0.052685 	4935 	0.051854
41.15 	0.052216 	4941 	0.051860
41.19 	0.052941 	4930 	0.052109
41.23 	0.051832 	4939 	0.050765
41.27 	0.051511 	4931 	0.050560
41.31 	0.051490 	4933 	0.050659
41.35 	0.051438 	4938 	0.050726
41.39 	0.048247 	4933 	0.047653
41.43 	0.049706 	4929 	0.048161
41.47 	0.056029 	4926 	0.055197
41.51 	0.051822 	4940 	0.051110
41.55 	0.046809 	4935 	0.045978
41.59 	0.054531 	4933 	0.053699
41.63 	0.049210 	4938 	0.048617
41.67 	0.051619 	4940 	0.050671
41.71 	0.048439 	4934 	0.047589
41.75 	0.050314 	4929 	0.049126
41.79 	0.046926 	4944 	0.046570
41.83 	0.049513 	4928 	0.048681
41.87 	0.050051 	4935 	0.048864
41.91 	0.053079 	4936 	0.052130
41.95 	0.052119 	4931 	0.051406
41.99 	0.048930 	4905 	0.048333
42.03 	0.044138 	4939 	0.043308
42.07 	0.046992 	4937 	0.045924
42.11 	0.046714 	4945 	0.046358
42.15 	0.043540 	4938 	0.043184
42.19 	0.047881 	4908 	0.047165
42.23 	0.051922 	4892 	0.051203
42.27 	0.047189 	4874 	0.046588
42.31 	0.050257 	4855 	0.049634
42.35 	0.046507 	4838 	0.045518
42.39 	0.048085 	4804 	0.047841
42.43 	0.045701 	4792 	0.045090
42.47 	0.049528 	4765 	0.048790
42.51 	0.046595 	4743 	0.045730
42.55 	0.049703 	4708 	0.049205
42.59 	0.049270 	4729 	0.047908
42.63 	0.049904 	4709 	0.049656
42.67 	0.046328 	4684 	0.045703
42.71 	0.045464 	4663 	0.044711
42.75 	0.048516 	4617 	0.048009
42.79 	0.047796 	4582 	0.047668
42.83 	0.050044 	4536 	0.048731
42.87 	0.050900 	4499 	0.049859
42.91 	0.052738 	4456 	0.051423
42.95 	0.048913 	4416 	0.048250
42.99 	0.051311 	4385 	0.050243
43.03 	0.044080 	4333 	0.043810
43.07 	0.048883 	4296 	0.048474
43.11 	0.044888 	4255 	0.044613
43.15 	0.045649 	4206 	0.044953
43.19 	0.044826 	4194 	0.043709
43.23 	0.046943 	4154 	0.046802
43.27 	0.049452 	4105 	0.049024
43.31 	0.050257 	4079 	0.049252
43.35 	0.042659 	4032 	0.041932
43.39 	0.051974 	4002 	0.051218
43.43 	0.050000 	3960 	0.049852
43.47 	0.048457 	3921 	0.047112
43.51 	0.048233 	3877 	0.047931
43.55 	0.047233 	2964 	0.047036
43.59 	0.045246 	1746 	0.044911
43.63 	0.054945 	1001 	0.053775
43.67 	0.039841 	502 	0.037507
43.71 	0.033473 	239 	0.033473
43.75 	0.062500 	16 	0.062500