File: Example_Data/25SC_s1_0023.001.dat
#F C:\frames\spec\25SC_s1_0023.001
#C title =s:23 frm:1 25SC_s1
#C wavelength =0.15406

#S 1  fr_average C:\frames\spec\25SC_s1_0023.001 C:\win32app\speccom\mask.axs chi 0 180 0 360 0.02
#C 2 theta =0.000000 to 180 deg
#C   q   =0.000000 to 81.568 nm^-1
#C  chi  =0.000000 to 360 deg
#C collumns:
#C  1 position (2theta or chi in degrees)
#C  2 average intensity (sum of all counts in the region divided with number of pixels)
#C  3 Number of pixels in region)
#C  4 error (sum of sqrt(intensity) for all pixels divided by number)
#N 4
#L TTh  Int  N_pix  Err
32.99 	0.081967 	61 	0.081967
33.03 	0.050324 	1391 	0.049481
33.07 	0.064878 	2050 	0.063449
33.11 	0.065529 	2579 	0.064166
33.15 	0.059353 	2999 	0.058376
33.19 	0.061041 	3342 	0.059639
33.23 	0.055634 	3523 	0.054304
33.27 	0.065289 	3630 	0.063770
33.31 	0.057650 	3660 	0.056850
33.35 	0.048998 	3694 	0.048523
33.39 	0.061947 	3729 	0.060847
33.43 	0.063813 	3761 	0.062567
33.47 	0.058189 	3798 	0.057880
33.51 	0.054260 	3815 	0.053338
33.55 	0.062711 	3843 	0.061492
33.59 	0.057990 	3880 	0.057084
33.63 	0.056137 	3919 	0.055090
33.67 	0.064997 	3954 	0.063368
33.71 	0.054843 	3975 	0.054253
33.75 	0.057264 	3999 	0.056385
33.79 	0.061371 	4041 	0.059486
33.83 	0.057037 	4050 	0.056145
33.87 	0.060083 	4111 	0.058943
33.91 	0.058086 	4149 	0.057522
33.95 	0.061708 	4181 	0.060587
33.99 	0.061667 	4200 	0.060110
34.03 	0.052780 	4244 	0.051814
34.07 	0.056232 	4268 	0.055134
34.11 	0.059042 	4302 	0.057953
34.15 	0.056800 	4331 	0.055696
34.19 	0.065566 	4362 	0.064626
34.23 	0.064421 	4393 	0.063754
34.27 	0.059249 	4422 	0.058454
34.31 	0.060117 	4458 	0.059722
34.35 	0.052855 	4484 	0.051809
34.39 	0.066859 	4502 	0.065558
34.43 	0.052655 	4539 	0.052009
34.47 	0.057274 	4592 	0.056253
34.51 	0.061007 	4606 	0.060117
34.55 	0.055352 	4643 	0.054343
34.59 	0.060963 	4675 	0.060085
34.63 	0.060085 	4710 	0.059339
34.67 	0.060114 	4741 	0.058878
34.71 	0.054763 	4766 	0.053780
34.75 	0.056780 	4808 	0.056293
34.79 	0.054726 	4824 	0.054362
34.83 	0.053476 	4862 	0.052874
34.87 	0.054848 	4868 	0.054126
34.91 	0.055920 	4882 	0.055440
34.95 	0.059305 	4890 	0.057847
34.99 	0.064121 	4897 	0.063044
35.03 	0.058871 	4943 	0.057331
35.07 	0.059717 	4940 	0.058056
35.11 	0.060643 	4947 	0.059103
35.15 	0.055904 	4937 	0.054837
35.19 	0.064346 	4942 	0.063635
35.23 	0.058847 	4945 	0.058373
35.27 	0.055174 	4948 	0.053615
35.31 	0.064464 	4933 	0.063514
35.35 	0.059692 	4942 	0.058270
35.39 	0.059454 	4945 	0.058368
35.43 	0.063045 	4933 	0.061620
35.47 	0.055972 	4931 	0.055260
35.51 	0.068413 	4926 	0.066827
35.55 	0.055410 	4945 	0.054462
35.59 	0.057432 	4945 	0.056484
35.63 	0.053813 	4943 	0.052628
35.67 	0.053217 	4942 	0.052032
35.71 	0.063601 	4937 	0.062534
35.75 	0.054756 	4931 	0.053924
35.79 	0.055150 	4932 	0.053943
35.83 	0.060049 	4946 	0.058983
35.87 	0.056267 	4923 	0.055434
35.91 	0.056627 	4927 	0.055794
35.95 	0.058979 	4917 	0.058145
35.99 	0.058514 	4939 	0.056122
36.03 	0.055837 	4943 	0.055481
36.07 	0.055072 	4939 	0.054479
36.11 	0.053966 	4929 	0.053016
36.15 	0.055274 	4939 	0.054207
36.19 	0.058907 	4940 	0.058077
36.23 	0.058764 	4935 	0.058170
36.27 	0.056447 	4925 	0.055257
36.31 	0.059050 	4928 	0.058456
36.35 	0.062893 	4929 	0.061823
36.39 	0.056899 	4921 	0.056304
36.43 	0.054992 	4928 	0.054516
36.47 	0.051256 	4936 	0.050900
36.51 	0.052909 	4933 	0.052078
36.55 	0.059468 	4927 	0.058993
36.59 	0.061348 	4939 	0.060637
36.63 	0.053742 	4931 	0.052791
36.67 	0.060446 	4930 	0.059377
36.71 	0.053648 	4921 	0.052933
36.75 	0.050162 	4944 	0.048977
36.79 	0.060760 	4921 	0.059927
36.83 	0.055951 	4915 	0.054879
36.87 	0.056634 	4944 	0.055094
36.91 	0.059097 	4941 	0.058267
36.95 	0.059599 	4933 	0.058767
36.99 	0.060993 	4935 	0.059687
37.03 	0.059708 	4924 	0.058756
37.07 	0.057953 	4935 	0.056766
37.11 	0.056130 	4935 	0.055061
37.15 	0.053982 	4909 	0.053147
37.19 	0.054213 	4925 	0.053024
37.23 	0.059170 	4918 	0.058098
37.27 	0.054352 	4894 	0.053514
37.31 	0.061803 	4935 	0.060616
37.35 	0.056298 	4938 	0.055112
37.39 	0.048063 	4931 	0.047113
37.43 	0.056975 	4932 	0.055768
37.47 	0.053155 	4929 	0.052798
37.51 	0.055544 	4933 	0.054832
37.55 	0.053753 	4930 	0.052802
37.59 	0.056765 	4915 	0.056407
37.63 	0.048181 	4919 	0.047704
37.67 	0.057708 	4904 	0.056633
37.71 	0.058835 	4929 	0.058004
37.75 	0.048988 	4940 	0.048632
37.79 	0.057809 	4930 	0.057334
37.83 	0.051220 	4920 	0.050267
37.87 	0.056692 	4939 	0.055367
37.91 	0.054158 	4930 	0.053445
37.95 	0.057915 	4921 	0.057201
37.99 	0.056800 	4912 	0.056084
38.03 	0.058464 	4909 	0.057609
38.07 	0.054186 	4909 	0.053590
38.11 	0.048835 	4935 	0.047885
38.15 	0.057544 	4918 	0.056948
38.19 	0.052333 	4930 	0.051501
38.23 	0.049008 	4938 	0.048158
38.27 	0.061866 	4930 	0.061272
38.31 	0.060889 	4927 	0.059581
38.35 	0.061282 	4928 	0.060213
38.39 	0.058871 	4909 	0.058036
38.43 	0.065704 	4916 	0.064850
38.47 	0.069085 	4907 	0.067155
38.51 	0.075629 	4932 	0.073966
38.55 	0.071515 	4936 	0.070210
38.59 	0.068034 	4924 	0.066725
38.63 	0.071284 	4924 	0.070213
38.67 	0.070083 	4937 	0.069015
38.71 	0.066613 	4924 	0.065661
38.75 	0.068602 	4927 	0.067056
38.79 	0.064248 	4934 	0.063061
38.83 	0.062411 	4919 	0.061220
38.87 	0.055182 	4911 	0.053870
38.91 	0.056088 	4903 	0.055491
38.95 	0.051240 	4918 	0.050407
38.99 	0.048005 	4937 	0.047530
39.03 	0.052088 	4934 	0.051138
39.07 	0.051990 	4924 	0.051039
39.11 	0.051714 	4931 	0.050763
39.15 	0.051272 	4915 	0.050557
39.19 	0.045149 	4917 	0.044435
39.23 	0.037970 	4925 	0.037851
39.27 	0.048676 	4910 	0.047960
39.31 	0.048321 	4884 	0.047961
39.35 	0.045390 	4935 	0.044915
39.39 	0.047880 	4929 	0.047167
39.43 	0.048855 	4933 	0.048380
39.47 	0.045907 	4923 	0.044836
39.51 	0.050162 	4924 	0.049687
39.55 	0.047977 	4919 	0.046905
39.59 	0.046621 	4912 	0.046024
39.63 	0.049167 	4922 	0.048453
39.67 	0.048850 	4913 	0.048254
39.71 	0.051890 	4895 	0.051172
39.75 	0.052151 	4928 	0.051507
39.79 	0.043443 	4926 	0.042967
39.83 	0.038306 	4934 	0.037949
39.87 	0.044264 	4925 	0.043669
39.91 	0.046526 	4922 	0.045931
39.95 	0.047609 	4915 	0.047133
39.99 	0.040146 	4932 	0.039671
40.03 	0.044846 	4928 	0.044133
40.07 	0.045907 	4923 	0.045669
40.11 	0.047396 	4916 	0.047158
40.15 	0.044576 	4913 	0.043860
40.19 	0.040576 	4929 	0.040338
40.23 	0.043187 	4932 	0.042950
40.27 	0.045372 	4937 	0.045016
40.31 	0.045961 	4939 	0.045249
40.35 	0.045944 	4919 	0.045468
40.39 	0.044210 	4931 	0.042903
40.43 	0.044697 	4922 	0.043269
40.47 	0.044734 	4918 	0.044019
40.51 	0.041853 	4922 	0.041377
40.55 	0.041972 	4908 	0.041614
40.59 	0.044764 	4937 	0.044052
40.63 	0.043408 	4930 	0.042932
40.67 	0.042376 	4932 	0.041901
40.71 	0.045620 	4932 	0.045502
40.75 	0.036301 	4931 	0.035945
40.79 	0.041633 	4924 	0.040800
40.83 	0.044034 	4928 	0.043202
40.87 	0.043831 	4928 	0.043237
40.91 	0.045501 	4923 	0.045025
40.95 	0.039691 	4913 	0.039452
40.99 	0.043867 	4924 	0.043629
41.03 	0.039551 	4905 	0.038715
41.07 	0.038540 	4930 	0.037470
41.11 	0.039108 	4935 	0.038515
41.15 	0.040073 	4941 	0.039362
41.19 	0.042191 	4930 	0.041597
41.23 	0.040494 	4939 	0.040020
41.27 	0.037923 	4931 	0.037923
41.31 	0.041151 	4933 	0.040676
41.35 	0.043742 	4938 	0.042892
41.39 	0.041557 	4933 	0.041062
41.43 	0.037736 	4929 	0.037379
41.47 	0.035120 	4926 	0.035120
41.51 	0.043117 	4940 	0.042762
41.55 	0.047011 	4935 	0.046774
41.59 	0.043787 	4933 	0.043055
41.63 	0.040097 	4938 	0.039623
41.67 	0.040891 	4940 	0.040654
41.71 	0.041143 	4934 	0.040431
41.75 	0.044025 	4929 	0.043550
41.79 	0.050364 	4944 	0.049653
41.83 	0.043222 	4928 	0.042509
41.87 	0.038095 	4935 	0.038095
41.91 	0.038493 	4936 	0.038255
41.95 	0.040763 	4931 	0.040287
41.99 	0.034047 	4905 	0.033569
42.03 	0.045353 	4939 	0.045116
42.07 	0.042131 	4937 	0.041894
42.11 	0.034378 	4945 	0.033549
42.15 	0.040300 	4938 	0.039588
42.19 	0.041565 	4908 	0.041207
42.23 	0.039861 	4892 	0.039741
42.27 	0.037957 	4874 	0.037716
42.31 	0.040371 	4855 	0.039647
42.35 	0.043613 	4838 	0.042766
42.39 	0.043922 	4804 	0.043434
42.43 	0.039023 	4792 	0.038412
42.47 	0.037146 	4765 	0.037023
42.51 	0.038583 	4743 	0.038213
42.55 	0.039295 	4708 	0.038424
42.59 	0.034045 	4729 	0.033550
42.63 	0.038649 	4709 	0.038276
42.67 	0.039496 	4684 	0.039121
42.71 	0.042462 	4663 	0.042211
42.75 	0.038337 	4617 	0.038337
42.79 	0.036229 	4582 	0.035973
42.83 	0.038360 	4536 	0.038231
42.87 	0.038008 	4499 	0.038008
42.91 	0.039048 	4456 	0.038654
42.95 	0.037138 	4416 	0.036474
42.99 	0.037172 	4385 	0.036771
43.03 	0.033464 	4333 	0.033329
43.07 	0.044227 	4296 	0.043409
43.11 	0.035723 	4255 	0.035447
43.15 	0.035663 	4206 	0.035106
43.19 	0.042442 	4194 	0.041743
43.23 	0.034665 	4154 	0.034383
43.27 	0.039220 	4105 	0.039078
43.31 	0.032851 	4079 	0.032277
43.35 	0.031746 	4032 	0.031455
43.39 	0.038731 	4002 	0.038584
43.43 	0.035101 	3960 	0.034953
43.47 	0.037235 	3921 	0.036937
43.51 	0.037400 	3877 	0.036922
43.55 	0.032726 	2964 	0.032726
43.59 	0.037801 	1746 	0.036794
43.63 	0.043956 	1001 	0.042689
43.67 	0.053785 	502 	0.053785
43.71 	0.016736 	239 	0.016736
43.75 	0.062500 	16 	0.062500