File: Example_Data/25SC_s1_0002.003.dat
#F C:\frames\spec\25SC_s1_0002.003
#C title =s:2 frm:3 25SC_s1
#C wavelength =0.15406

#S 1  fr_average C:\frames\spec\25SC_s1_0002.003 C:\win32app\speccom\mask.axs chi 0 180 0 360 0.02
#C 2 theta =0.000000 to 180 deg
#C   q   =0.000000 to 81.568 nm^-1
#C  chi  =0.000000 to 360 deg
#C collumns:
#C  1 position (2theta or chi in degrees)
#C  2 average intensity (sum of all counts in the region divided with number of pixels)
#C  3 Number of pixels in region)
#C  4 error (sum of sqrt(intensity) for all pixels divided by number)
#N 4
#L TTh  Int  N_pix  Err
32.99 	0.098361 	61 	0.098361
33.03 	0.071891 	1391 	0.070206
33.07 	0.075610 	2050 	0.074467
33.11 	0.070958 	2579 	0.068459
33.15 	0.068023 	2999 	0.066265
33.19 	0.078097 	3342 	0.076870
33.23 	0.068691 	3523 	0.066862
33.27 	0.072727 	3630 	0.070952
33.31 	0.069672 	3660 	0.068392
33.35 	0.075257 	3694 	0.074121
33.39 	0.078842 	3729 	0.076931
33.43 	0.070726 	3761 	0.069947
33.47 	0.072143 	3798 	0.070292
33.51 	0.073394 	3815 	0.071552
33.55 	0.071819 	3843 	0.071209
33.59 	0.064433 	3880 	0.063074
33.63 	0.073743 	3919 	0.071477
33.67 	0.066515 	3954 	0.064885
33.71 	0.074465 	3975 	0.072992
33.75 	0.066267 	3999 	0.064802
33.79 	0.068052 	4041 	0.066289
33.83 	0.073086 	4050 	0.071929
33.87 	0.075407 	4111 	0.073840
33.91 	0.076645 	4149 	0.073939
33.95 	0.072232 	4181 	0.071111
33.99 	0.063571 	4200 	0.062595
34.03 	0.063384 	4244 	0.062279
34.07 	0.067948 	4268 	0.067124
34.11 	0.064621 	4302 	0.063668
34.15 	0.061649 	4331 	0.060837
34.19 	0.071527 	4362 	0.069378
34.23 	0.071933 	4393 	0.070466
34.27 	0.067390 	4422 	0.066198
34.31 	0.070884 	4458 	0.069964
34.35 	0.073372 	4484 	0.072327
34.39 	0.074856 	4502 	0.073294
34.43 	0.073364 	4539 	0.072461
34.47 	0.067726 	4592 	0.066323
34.51 	0.070994 	4606 	0.069468
34.55 	0.072152 	4643 	0.070890
34.59 	0.071872 	4675 	0.070849
34.63 	0.072824 	4710 	0.071331
34.67 	0.072559 	4741 	0.070829
34.71 	0.067352 	4766 	0.065754
34.75 	0.064892 	4808 	0.064039
34.79 	0.070481 	4824 	0.069509
34.83 	0.068696 	4862 	0.067250
34.87 	0.065325 	4868 	0.064242
34.91 	0.064728 	4882 	0.063168
34.95 	0.074233 	4890 	0.072556
34.99 	0.070451 	4897 	0.068657
35.03 	0.069391 	4943 	0.067732
35.07 	0.071255 	4940 	0.070306
35.11 	0.072974 	4947 	0.070941
35.15 	0.075349 	4937 	0.074044
35.19 	0.072440 	4942 	0.070781
35.23 	0.066532 	4945 	0.065110
35.27 	0.067300 	4948 	0.066353
35.31 	0.073789 	4933 	0.072344
35.35 	0.072845 	4942 	0.071541
35.39 	0.071790 	4945 	0.069737
35.43 	0.074397 	4933 	0.072853
35.47 	0.066721 	4931 	0.065038
35.51 	0.075924 	4926 	0.074001
35.55 	0.070981 	4945 	0.068612
35.59 	0.071992 	4945 	0.070314
35.63 	0.071212 	4943 	0.070027
35.67 	0.073250 	4942 	0.071709
35.71 	0.064817 	4937 	0.063492
35.75 	0.068546 	4931 	0.067596
35.79 	0.066099 	4932 	0.064773
35.83 	0.071775 	4946 	0.070117
35.87 	0.070689 	4923 	0.069380
35.91 	0.066369 	4927 	0.064823
35.95 	0.074436 	4917 	0.072887
35.99 	0.072889 	4939 	0.071209
36.03 	0.072426 	4943 	0.069937
36.07 	0.067423 	4939 	0.066237
36.11 	0.071820 	4929 	0.070037
36.15 	0.073294 	4939 	0.072108
36.19 	0.072470 	4940 	0.071402
36.23 	0.075988 	4935 	0.073357
36.27 	0.069645 	4925 	0.067861
36.31 	0.073052 	4928 	0.071388
36.35 	0.069182 	4929 	0.067637
36.39 	0.076814 	4921 	0.076099
36.43 	0.071226 	4928 	0.069680
36.47 	0.073339 	4936 	0.071915
36.51 	0.072775 	4933 	0.071093
36.55 	0.072255 	4927 	0.070353
36.59 	0.069042 	4939 	0.067856
36.63 	0.061854 	4931 	0.060903
36.67 	0.067343 	4930 	0.065560
36.71 	0.070717 	4921 	0.069408
36.75 	0.076659 	4944 	0.074407
36.79 	0.072140 	4921 	0.070830
36.83 	0.074466 	4915 	0.072797
36.87 	0.072209 	4944 	0.070530
36.91 	0.079134 	4941 	0.077474
36.95 	0.072978 	4933 	0.071296
36.99 	0.074772 	4935 	0.073091
37.03 	0.070065 	4924 	0.068637
37.07 	0.073961 	4935 	0.071706
37.11 	0.071530 	4935 	0.070224
37.15 	0.063760 	4909 	0.062309
37.19 	0.076548 	4925 	0.075240
37.23 	0.069540 	4918 	0.068449
37.27 	0.070290 	4894 	0.068734
37.31 	0.068288 	4935 	0.066745
37.35 	0.068854 	4938 	0.067905
37.39 	0.067126 	4931 	0.065938
37.43 	0.062247 	4932 	0.061296
37.47 	0.069182 	4929 	0.067737
37.51 	0.064464 	4933 	0.062881
37.55 	0.065923 	4930 	0.064359
37.59 	0.072228 	4915 	0.069805
37.63 	0.063834 	4919 	0.062524
37.67 	0.062398 	4904 	0.062159
37.71 	0.065733 	4929 	0.064545
37.75 	0.072267 	4940 	0.070706
37.79 	0.073834 	4930 	0.072289
37.83 	0.069512 	4920 	0.068203
37.87 	0.071067 	4939 	0.070217
37.91 	0.062272 	4930 	0.061559
37.95 	0.074172 	4921 	0.072962
37.99 	0.062704 	4912 	0.061849
38.03 	0.068038 	4909 	0.066964
38.07 	0.067223 	4909 	0.065533
38.11 	0.073354 	4935 	0.071810
38.15 	0.064864 	4918 	0.063434
38.19 	0.067546 	4930 	0.066357
38.23 	0.075537 	4938 	0.074350
38.27 	0.074239 	4930 	0.072576
38.31 	0.073473 	4927 	0.071908
38.35 	0.082995 	4928 	0.081806
38.39 	0.080261 	4909 	0.078590
38.43 	0.091131 	4916 	0.088510
38.47 	0.085388 	4907 	0.083598
38.51 	0.090227 	4932 	0.088327
38.55 	0.088128 	4936 	0.085873
38.59 	0.085093 	4924 	0.082833
38.63 	0.076970 	4924 	0.074452
38.67 	0.078590 	4937 	0.076454
38.71 	0.073924 	4924 	0.072853
38.75 	0.069008 	4927 	0.067700
38.79 	0.065261 	4934 	0.063105
38.83 	0.065460 	4919 	0.063774
38.87 	0.057422 	4911 	0.056448
38.91 	0.059759 	4903 	0.058565
38.95 	0.063034 	4918 	0.061228
38.99 	0.058943 	4937 	0.057756
39.03 	0.056141 	4934 	0.055310
39.07 	0.057067 	4924 	0.055977
39.11 	0.058000 	4931 	0.057050
39.15 	0.057986 	4915 	0.057151
39.19 	0.058776 	4917 	0.057346
39.23 	0.064162 	4925 	0.062696
39.27 	0.056212 	4910 	0.054899
39.31 	0.053645 	4884 	0.053045
39.35 	0.052077 	4935 	0.051246
39.39 	0.056401 	4929 	0.055331
39.43 	0.049463 	4933 	0.048988
39.47 	0.051188 	4923 	0.050355
39.51 	0.056255 	4924 	0.055641
39.55 	0.056109 	4919 	0.054680
39.59 	0.057207 	4912 	0.056253
39.63 	0.061764 	4922 	0.060811
39.67 	0.058620 	4913 	0.057666
39.71 	0.059448 	4895 	0.058132
39.75 	0.057630 	4928 	0.056778
39.79 	0.051766 	4926 	0.051290
39.83 	0.056952 	4934 	0.056239
39.87 	0.056244 	4925 	0.055411
39.91 	0.053840 	4922 	0.053483
39.95 	0.059817 	4915 	0.058586
39.99 	0.054745 	4932 	0.053300
40.03 	0.052151 	4928 	0.051200
40.07 	0.053016 	4923 	0.052422
40.11 	0.048210 	4916 	0.047595
40.15 	0.054346 	4913 	0.053153
40.19 	0.053763 	4929 	0.052575
40.23 	0.055556 	4932 	0.054962
40.27 	0.051246 	4937 	0.050771
40.31 	0.053250 	4939 	0.052657
40.35 	0.051840 	4919 	0.051363
40.39 	0.051714 	4931 	0.050763
40.43 	0.057700 	4922 	0.057105
40.47 	0.053477 	4918 	0.052524
40.51 	0.045916 	4922 	0.045559
40.55 	0.047881 	4908 	0.047642
40.59 	0.046587 	4937 	0.045994
40.63 	0.052738 	4930 	0.051907
40.67 	0.049878 	4932 	0.048809
40.71 	0.053933 	4932 	0.052983
40.75 	0.053742 	4931 	0.053385
40.79 	0.050366 	4924 	0.049414
40.83 	0.046875 	4928 	0.046043
40.87 	0.051339 	4928 	0.049913
40.91 	0.057485 	4923 	0.056276
40.95 	0.050682 	4913 	0.050086
40.99 	0.054630 	4924 	0.053798
41.03 	0.054027 	4905 	0.053668
41.07 	0.051116 	4930 	0.050027
41.11 	0.049037 	4935 	0.047712
41.15 	0.050192 	4941 	0.049481
41.19 	0.053753 	4930 	0.052802
41.23 	0.051427 	4939 	0.050479
41.27 	0.054756 	4931 	0.053924
41.31 	0.049868 	4933 	0.049631
41.35 	0.050020 	4938 	0.049071
41.39 	0.044395 	4933 	0.043920
41.43 	0.049097 	4929 	0.048265
41.47 	0.050345 	4926 	0.049394
41.51 	0.048583 	4940 	0.047496
41.55 	0.046201 	4935 	0.045845
41.59 	0.052301 	4933 	0.051707
41.63 	0.054070 	4938 	0.052884
41.67 	0.051822 	4940 	0.051110
41.71 	0.051277 	4934 	0.050565
41.75 	0.053763 	4929 	0.052456
41.79 	0.043083 	4944 	0.042253
41.83 	0.048093 	4928 	0.047023
41.87 	0.047822 	4935 	0.047228
41.91 	0.055105 	4936 	0.054156
41.95 	0.051916 	4931 	0.051441
41.99 	0.049745 	4905 	0.049267
42.03 	0.051225 	4939 	0.050276
42.07 	0.051043 	4937 	0.050331
42.11 	0.047321 	4945 	0.046254
42.15 	0.051438 	4938 	0.050845
42.19 	0.046251 	4908 	0.045654
42.23 	0.049264 	4892 	0.047588
42.27 	0.049241 	4874 	0.048279
42.31 	0.048816 	4855 	0.048454
42.35 	0.049194 	4838 	0.048831
42.39 	0.046420 	4804 	0.045200
42.43 	0.052379 	4792 	0.052134
42.47 	0.044911 	4765 	0.044050
42.51 	0.047649 	4743 	0.046517
42.55 	0.048853 	4708 	0.048480
42.59 	0.050539 	4729 	0.049796
42.63 	0.049480 	4709 	0.048733
42.67 	0.045474 	4684 	0.044724
42.71 	0.049324 	4663 	0.048948
42.75 	0.048083 	4617 	0.047829
42.79 	0.045613 	4582 	0.045209
42.83 	0.047178 	4536 	0.046511
42.87 	0.040009 	4499 	0.039488
42.91 	0.050494 	4456 	0.050099
42.95 	0.046196 	4416 	0.045400
42.99 	0.048803 	4385 	0.047979
43.03 	0.045003 	4333 	0.043922
43.07 	0.044460 	4296 	0.044324
43.11 	0.054289 	4255 	0.053325
43.15 	0.045411 	4206 	0.044715
43.19 	0.047687 	4194 	0.046547
43.23 	0.050794 	4154 	0.050371
43.27 	0.044580 	4105 	0.044152
43.31 	0.049277 	4079 	0.048702
43.35 	0.047123 	4032 	0.046687
43.39 	0.043978 	4002 	0.043393
43.43 	0.044949 	3960 	0.044802
43.47 	0.042846 	3921 	0.041950
43.51 	0.046170 	3877 	0.045565
43.55 	0.050270 	2964 	0.049875
43.59 	0.037801 	1746 	0.037465
43.63 	0.046953 	1001 	0.046368
43.67 	0.031873 	502 	0.031873
43.71 	0.054393 	239 	0.051942
43.75 	0.000000 	16 	0.000000