File: Example_Data/25SC_s1_0002.007.dat
#F C:\frames\spec\25SC_s1_0002.007
#C title =s:2 frm:7 25SC_s1
#C wavelength =0.15406

#S 1  fr_average C:\frames\spec\25SC_s1_0002.007 C:\win32app\speccom\mask.axs chi 0 180 0 360 0.02
#C 2 theta =0.000000 to 180 deg
#C   q   =0.000000 to 81.568 nm^-1
#C  chi  =0.000000 to 360 deg
#C collumns:
#C  1 position (2theta or chi in degrees)
#C  2 average intensity (sum of all counts in the region divided with number of pixels)
#C  3 Number of pixels in region)
#C  4 error (sum of sqrt(intensity) for all pixels divided by number)
#N 4
#L TTh  Int  N_pix  Err
32.99 	0.081967 	61 	0.081967
33.03 	0.068296 	1391 	0.065279
33.07 	0.077561 	2050 	0.074418
33.11 	0.075998 	2579 	0.073727
33.15 	0.077359 	2999 	0.075406
33.19 	0.071813 	3342 	0.069535
33.23 	0.074085 	3523 	0.073419
33.27 	0.068871 	3630 	0.067902
33.31 	0.074590 	3660 	0.073150
33.35 	0.076611 	3694 	0.074708
33.39 	0.072137 	3729 	0.070566
33.43 	0.078171 	3761 	0.076302
33.47 	0.075303 	3798 	0.074377
33.51 	0.078113 	3815 	0.076577
33.55 	0.078584 	3843 	0.075841
33.59 	0.076289 	3880 	0.075056
33.63 	0.072212 	3919 	0.070419
33.67 	0.074102 	3954 	0.072028
33.71 	0.075975 	3975 	0.074501
33.75 	0.069517 	3999 	0.067589
33.79 	0.075476 	4041 	0.074317
33.83 	0.063210 	4050 	0.062053
33.87 	0.077597 	4111 	0.075436
33.91 	0.064594 	4149 	0.062876
33.95 	0.068166 	4181 	0.066764
33.99 	0.074286 	4200 	0.072891
34.03 	0.075401 	4244 	0.074158
34.07 	0.074039 	4268 	0.072118
34.11 	0.076941 	4302 	0.075715
34.15 	0.070653 	4331 	0.068873
34.19 	0.075653 	4362 	0.073326
34.23 	0.074209 	4393 	0.073276
34.27 	0.075305 	4422 	0.073694
34.31 	0.074921 	4458 	0.073739
34.35 	0.069135 	4484 	0.067828
34.39 	0.073301 	4502 	0.071739
34.43 	0.076008 	4539 	0.074459
34.47 	0.080575 	4592 	0.078747
34.51 	0.071429 	4606 	0.069225
34.55 	0.062460 	4643 	0.061198
34.59 	0.072299 	4675 	0.071798
34.63 	0.073673 	4710 	0.072678
34.67 	0.065176 	4741 	0.063519
34.71 	0.068191 	4766 	0.066716
34.75 	0.075499 	4808 	0.073621
34.79 	0.076493 	4824 	0.074894
34.83 	0.077334 	4862 	0.075889
34.87 	0.068611 	4868 	0.067388
34.91 	0.071077 	4882 	0.069998
34.95 	0.072188 	4890 	0.070511
34.99 	0.069022 	4897 	0.067586
35.03 	0.076269 	4943 	0.074828
35.07 	0.068623 	4940 	0.066726
35.11 	0.071761 	4947 	0.069511
35.15 	0.075147 	4937 	0.073960
35.19 	0.073452 	4942 	0.072030
35.23 	0.070779 	4945 	0.070068
35.27 	0.074576 	4948 	0.073984
35.31 	0.073991 	4933 	0.072567
35.35 	0.071631 	4942 	0.070446
35.39 	0.070981 	4945 	0.069559
35.43 	0.073789 	4933 	0.072344
35.47 	0.073210 	4931 	0.071666
35.51 	0.071458 	4926 	0.069674
35.55 	0.071992 	4945 	0.070215
35.59 	0.075834 	4945 	0.074650
35.63 	0.072426 	4943 	0.070293
35.67 	0.075071 	4942 	0.073392
35.71 	0.069475 	4937 	0.068408
35.75 	0.071791 	4931 	0.069652
35.79 	0.071979 	4932 	0.070534
35.83 	0.074404 	4946 	0.073219
35.87 	0.075970 	4923 	0.074542
35.91 	0.072458 	4927 	0.071269
35.95 	0.074232 	4917 	0.072068
35.99 	0.078558 	4939 	0.077254
36.03 	0.074651 	4943 	0.073110
36.07 	0.066208 	4939 	0.065378
36.11 	0.068168 	4929 	0.066623
36.15 	0.076534 	4939 	0.074735
36.19 	0.076923 	4940 	0.075144
36.23 	0.072746 	4935 	0.070946
36.27 	0.067614 	4925 	0.066524
36.31 	0.070211 	4928 	0.069022
36.35 	0.069385 	4929 	0.067603
36.39 	0.071530 	4921 	0.069487
36.43 	0.072849 	4928 	0.071423
36.47 	0.075365 	4936 	0.074297
36.51 	0.064261 	4933 	0.062955
36.55 	0.068399 	4927 	0.067329
36.59 	0.070257 	4939 	0.069308
36.63 	0.064896 	4931 	0.063589
36.67 	0.072819 	4930 	0.071988
36.71 	0.069904 	4921 	0.068000
36.75 	0.067961 	4944 	0.066401
36.79 	0.070921 	4921 	0.069730
36.83 	0.076907 	4915 	0.074723
36.87 	0.068770 	4944 	0.066855
36.91 	0.069014 	4941 	0.067947
36.95 	0.073586 	4933 	0.072280
36.99 	0.070922 	4935 	0.069953
37.03 	0.066206 	4924 	0.065374
37.07 	0.064438 	4935 	0.063488
37.11 	0.071530 	4935 	0.069018
37.15 	0.062131 	4909 	0.060937
37.19 	0.061726 	4925 	0.060774
37.23 	0.064864 	4918 	0.064387
37.27 	0.064569 	4894 	0.063133
37.31 	0.058764 	4935 	0.057814
37.35 	0.066019 	4938 	0.064476
37.39 	0.067126 	4931 	0.065938
37.43 	0.071979 	4932 	0.070554
37.47 	0.072631 	4929 	0.070849
37.51 	0.071964 	4933 	0.070421
37.55 	0.063692 	4930 	0.062860
37.59 	0.067955 	4915 	0.066644
37.63 	0.066477 	4919 	0.065524
37.67 	0.071370 	4904 	0.069559
37.71 	0.064719 	4929 	0.062936
37.75 	0.065992 	4940 	0.065043
37.79 	0.065112 	4930 	0.064280
37.83 	0.067073 	4920 	0.066240
37.87 	0.061753 	4939 	0.060923
37.91 	0.066329 	4930 	0.065378
37.95 	0.069092 	4921 	0.067544
37.99 	0.064536 	4912 	0.063940
38.03 	0.061112 	4909 	0.059800
38.07 	0.069261 	4909 	0.067093
38.11 	0.060790 	4935 	0.059109
38.15 	0.062627 	4918 	0.061793
38.19 	0.062677 	4930 	0.061727
38.23 	0.068044 	4938 	0.066838
38.27 	0.075254 	4930 	0.073808
38.31 	0.062310 	4927 	0.061240
38.35 	0.068994 	4928 	0.068280
38.39 	0.073742 	4909 	0.072549
38.43 	0.069976 	4916 	0.068764
38.47 	0.081720 	4907 	0.079213
38.51 	0.071573 	4932 	0.070386
38.55 	0.075567 	4936 	0.074262
38.59 	0.071690 	4924 	0.070738
38.63 	0.071893 	4924 	0.070565
38.67 	0.073526 	4937 	0.072340
38.71 	0.067425 	4924 	0.065402
38.75 	0.066775 	4927 	0.065685
38.79 	0.070126 	4934 	0.069275
38.83 	0.068916 	4919 	0.067487
38.87 	0.065771 	4911 	0.064220
38.91 	0.061799 	4903 	0.060485
38.95 	0.062220 	4918 	0.061268
38.99 	0.060968 	4937 	0.059881
39.03 	0.062424 	4934 	0.061712
39.07 	0.057474 	4924 	0.056403
39.11 	0.056581 	4931 	0.056224
39.15 	0.063072 	4915 	0.062119
39.19 	0.059996 	4917 	0.058447
39.23 	0.057259 	4925 	0.056426
39.27 	0.061100 	4910 	0.060265
39.31 	0.059378 	4884 	0.058758
39.35 	0.056738 	4935 	0.055907
39.39 	0.059647 	4929 	0.058934
39.43 	0.057774 	4933 	0.056705
39.47 	0.059517 	4923 	0.058327
39.51 	0.054224 	4924 	0.053134
39.55 	0.059768 	4919 	0.058696
39.59 	0.054967 	4912 	0.054013
39.63 	0.059732 	4922 	0.058780
39.67 	0.063505 	4913 	0.062551
39.71 	0.061491 	4895 	0.060155
39.75 	0.059659 	4928 	0.057718
39.79 	0.062322 	4926 	0.061252
39.83 	0.062019 	4934 	0.061425
39.87 	0.064365 	4925 	0.062780
39.91 	0.057700 	4922 	0.056510
39.95 	0.062665 	4915 	0.061354
39.99 	0.056975 	4932 	0.056381
40.03 	0.050122 	4928 	0.049884
40.07 	0.054845 	4923 	0.054012
40.11 	0.060822 	4916 	0.059372
40.15 	0.061470 	4913 	0.060396
40.19 	0.059241 	4929 	0.058152
40.23 	0.052109 	4932 	0.051020
40.27 	0.052056 	4937 	0.050988
40.31 	0.053857 	4939 	0.052552
40.35 	0.064647 	4919 	0.063576
40.39 	0.065098 	4931 	0.064029
40.43 	0.063186 	4922 	0.061143
40.47 	0.060187 	4918 	0.059115
40.51 	0.052824 	4922 	0.052467
40.55 	0.052363 	4908 	0.051170
40.59 	0.055499 	4937 	0.054906
40.63 	0.058215 	4930 	0.056532
40.67 	0.053933 	4932 	0.053102
40.71 	0.054745 	4932 	0.053438
40.75 	0.055567 	4931 	0.054854
40.79 	0.058895 	4924 	0.057706
40.83 	0.057224 	4928 	0.056749
40.87 	0.054992 	4928 	0.054041
40.91 	0.051595 	4923 	0.050643
40.95 	0.056992 	4913 	0.056038
40.99 	0.056458 	4924 	0.055982
41.03 	0.062793 	4905 	0.061479
41.07 	0.057404 	4930 	0.056334
41.11 	0.056738 	4935 	0.056144
41.15 	0.050192 	4941 	0.049718
41.19 	0.051927 	4930 	0.050501
41.23 	0.060944 	4939 	0.060094
41.27 	0.055770 	4931 	0.054938
41.31 	0.052098 	4933 	0.051029
41.35 	0.065411 	4938 	0.064462
41.39 	0.055747 	4933 	0.054916
41.43 	0.049909 	4929 	0.049077
41.47 	0.055420 	4926 	0.054469
41.51 	0.054251 	4940 	0.053540
41.55 	0.064438 	4935 	0.063488
41.59 	0.054733 	4933 	0.053665
41.63 	0.055286 	4938 	0.054455
41.67 	0.054251 	4940 	0.053421
41.71 	0.053101 	4934 	0.052389
41.75 	0.059241 	4929 	0.058152
41.79 	0.056837 	4944 	0.056363
41.83 	0.055398 	4928 	0.054209
41.87 	0.045998 	4935 	0.045642
41.91 	0.053282 	4936 	0.052669
41.95 	0.053539 	4931 	0.053182
41.99 	0.052803 	4905 	0.052206
42.03 	0.057906 	4939 	0.056701
42.07 	0.057930 	4937 	0.056506
42.11 	0.053185 	4945 	0.052593
42.15 	0.052653 	4938 	0.052178
42.19 	0.059495 	4908 	0.058779
42.23 	0.054988 	4892 	0.053890
42.27 	0.049651 	4874 	0.049170
42.31 	0.057261 	4855 	0.056054
42.35 	0.049814 	4838 	0.048946
42.39 	0.047460 	4804 	0.047095
42.43 	0.055301 	4792 	0.054547
42.47 	0.053305 	4765 	0.052322
42.51 	0.046806 	4743 	0.045921
42.55 	0.051827 	4708 	0.051205
42.59 	0.053923 	4729 	0.053427
42.63 	0.050117 	4709 	0.048479
42.67 	0.053160 	4684 	0.052409
42.71 	0.049539 	4663 	0.048136
42.75 	0.051982 	4617 	0.050967
42.79 	0.050415 	4582 	0.049775
42.83 	0.052469 	4536 	0.051565
42.87 	0.055123 	4499 	0.054082
42.91 	0.053187 	4456 	0.051741
42.95 	0.053895 	4416 	0.053364
42.99 	0.051083 	4385 	0.050015
43.03 	0.058389 	4333 	0.057713
43.07 	0.055633 	4296 	0.054520
43.11 	0.047944 	4255 	0.047393
43.15 	0.048740 	4206 	0.048322
43.19 	0.046257 	4194 	0.045419
43.23 	0.051276 	4154 	0.050571
43.27 	0.047990 	4105 	0.047705
43.31 	0.050993 	4079 	0.050418
43.35 	0.055804 	4032 	0.055368
43.39 	0.053223 	4002 	0.052345
43.43 	0.058333 	3960 	0.057002
43.47 	0.048202 	3921 	0.048202
43.51 	0.051844 	3877 	0.051089
43.55 	0.047908 	2964 	0.047315
43.59 	0.049828 	1746 	0.048822
43.63 	0.045954 	1001 	0.045954
43.67 	0.037849 	502 	0.036682
43.71 	0.037657 	239 	0.037657
43.75 	0.062500 	16 	0.062500