File: Example_Data/25SC_s1_0023.003.dat
#F C:\frames\spec\25SC_s1_0023.003
#C title =s:23 frm:3 25SC_s1
#C wavelength =0.15406

#S 1  fr_average C:\frames\spec\25SC_s1_0023.003 C:\win32app\speccom\mask.axs chi 0 180 0 360 0.02
#C 2 theta =0.000000 to 180 deg
#C   q   =0.000000 to 81.568 nm^-1
#C  chi  =0.000000 to 360 deg
#C collumns:
#C  1 position (2theta or chi in degrees)
#C  2 average intensity (sum of all counts in the region divided with number of pixels)
#C  3 Number of pixels in region)
#C  4 error (sum of sqrt(intensity) for all pixels divided by number)
#N 4
#L TTh  Int  N_pix  Err
32.99 	0.016393 	61 	0.016393
33.03 	0.060388 	1391 	0.057861
33.07 	0.065854 	2050 	0.064996
33.11 	0.061652 	2579 	0.060062
33.15 	0.065689 	2999 	0.064517
33.19 	0.060443 	3342 	0.059216
33.23 	0.054499 	3523 	0.053668
33.27 	0.056749 	3630 	0.055297
33.31 	0.058197 	3660 	0.056756
33.35 	0.050081 	3694 	0.049288
33.39 	0.057656 	3729 	0.057185
33.43 	0.056634 	3761 	0.056011
33.47 	0.053976 	3798 	0.053359
33.51 	0.058191 	3815 	0.057117
33.55 	0.056727 	3843 	0.056117
33.59 	0.059021 	3880 	0.057813
33.63 	0.058944 	3919 	0.058047
33.67 	0.062468 	3954 	0.061876
33.71 	0.055346 	3975 	0.054756
33.75 	0.069267 	3999 	0.068388
33.79 	0.064341 	4041 	0.063616
33.83 	0.051605 	4050 	0.050303
33.87 	0.056920 	4111 	0.056350
33.91 	0.057604 	4149 	0.056616
33.95 	0.057403 	4181 	0.056842
33.99 	0.055238 	4200 	0.054262
34.03 	0.057493 	4244 	0.055814
34.07 	0.060918 	4268 	0.059798
34.11 	0.057880 	4302 	0.057063
34.15 	0.056800 	4331 	0.055312
34.19 	0.060293 	4362 	0.059085
34.23 	0.058957 	4393 	0.058424
34.27 	0.058118 	4422 	0.057324
34.31 	0.053836 	4458 	0.053179
34.35 	0.055977 	4484 	0.054910
34.39 	0.054198 	4502 	0.053678
34.43 	0.064552 	4539 	0.063132
34.47 	0.060105 	4592 	0.059191
34.51 	0.057534 	4606 	0.056262
34.55 	0.052337 	4643 	0.051706
34.59 	0.054545 	4675 	0.053543
34.63 	0.058811 	4710 	0.057940
34.67 	0.059903 	4741 	0.058276
34.71 	0.060848 	4766 	0.059987
34.75 	0.060108 	4808 	0.058890
34.79 	0.063018 	4824 	0.061420
34.83 	0.060469 	4862 	0.059606
34.87 	0.058340 	4868 	0.056636
34.91 	0.053667 	4882 	0.052947
34.95 	0.059305 	4890 	0.057987
34.99 	0.055544 	4897 	0.054946
35.03 	0.059478 	4943 	0.058886
35.07 	0.059514 	4940 	0.057973
35.11 	0.060643 	4947 	0.059577
35.15 	0.060158 	4937 	0.058853
35.19 	0.054431 	4942 	0.054076
35.23 	0.055207 	4945 	0.054260
35.27 	0.061439 	4948 	0.060255
35.31 	0.059193 	4933 	0.057630
35.35 	0.059288 	4942 	0.058339
35.39 	0.051769 	4945 	0.051177
35.43 	0.057774 	4933 	0.056943
35.47 	0.053336 	4931 	0.052504
35.51 	0.056232 	4926 	0.055142
35.55 	0.059050 	4945 	0.058102
35.59 	0.054398 	4945 	0.053095
35.63 	0.051993 	4943 	0.051045
35.67 	0.059288 	4942 	0.058577
35.71 	0.055904 	4937 	0.054955
35.75 	0.056784 	4931 	0.055833
35.79 	0.062652 	4932 	0.061346
35.83 	0.053579 	4946 	0.052868
35.87 	0.060126 	4923 	0.058817
35.91 	0.062513 	4927 	0.061680
35.95 	0.062436 	4917 	0.061841
35.99 	0.055679 	4939 	0.054968
36.03 	0.054825 	4943 	0.053521
36.07 	0.057704 	4939 	0.056024
36.11 	0.052952 	4929 	0.052239
36.15 	0.057299 	4939 	0.056232
36.19 	0.056073 	4940 	0.055124
36.23 	0.053293 	4935 	0.052818
36.27 	0.055838 	4925 	0.054866
36.31 	0.057427 	4928 	0.056476
36.35 	0.054981 	4929 	0.054030
36.39 	0.053851 	4921 	0.053494
36.43 	0.058847 	4928 	0.057659
36.47 	0.062399 	4936 	0.061449
36.51 	0.055950 	4933 	0.054881
36.55 	0.052365 	4927 	0.050938
36.59 	0.055072 	4939 	0.054004
36.63 	0.049280 	4931 	0.048924
36.67 	0.054767 	4930 	0.053579
36.71 	0.049177 	4921 	0.049058
36.75 	0.052184 	4944 	0.051237
36.79 	0.052835 	4921 	0.052478
36.83 	0.048627 	4915 	0.048150
36.87 	0.053196 	4944 	0.052248
36.91 	0.058288 	4941 	0.057458
36.95 	0.052098 	4933 	0.051029
36.99 	0.052685 	4935 	0.052329
37.03 	0.047319 	4924 	0.046724
37.07 	0.053090 	4935 	0.052497
37.11 	0.045390 	4935 	0.044440
37.15 	0.050927 	4909 	0.050072
37.19 	0.049949 	4925 	0.049711
37.23 	0.048394 	4918 	0.047441
37.27 	0.055170 	4894 	0.053853
37.31 	0.058967 	4935 	0.058373
37.35 	0.057716 	4938 	0.056510
37.39 	0.051916 	4931 	0.051441
37.43 	0.050487 	4932 	0.049180
37.47 	0.049503 	4929 	0.048671
37.51 	0.048449 	4933 	0.047737
37.55 	0.049696 	4930 	0.049458
37.59 	0.051475 	4915 	0.050760
37.63 	0.054279 	4919 	0.053208
37.67 	0.049755 	4904 	0.049516
37.71 	0.047271 	4929 	0.046439
37.75 	0.050405 	4940 	0.049318
37.79 	0.052333 	4930 	0.051857
37.83 	0.047561 	4920 	0.046351
37.87 	0.055679 	4939 	0.054612
37.91 	0.054158 	4930 	0.053445
37.95 	0.054867 	4921 	0.053677
37.99 	0.049471 	4912 	0.048874
38.03 	0.052149 	4909 	0.051672
38.07 	0.055205 	4909 	0.054131
38.11 	0.059777 	4935 	0.058452
38.15 	0.055510 	4918 	0.054796
38.19 	0.053550 	4930 	0.053193
38.23 	0.054475 	4938 	0.053526
38.27 	0.053347 	4930 	0.052634
38.31 	0.056627 	4927 	0.055557
38.35 	0.056615 	4928 	0.055189
38.39 	0.052964 	4909 	0.052129
38.43 	0.058991 	4916 	0.057442
38.47 	0.064194 	4907 	0.063239
38.51 	0.062449 	4932 	0.061024
38.55 	0.058752 	4936 	0.057803
38.59 	0.056661 	4924 	0.055115
38.63 	0.057271 	4924 	0.056418
38.67 	0.052461 	4937 	0.051986
38.71 	0.053006 	4924 	0.052411
38.75 	0.052973 	4927 	0.052617
38.79 	0.050061 	4934 	0.049111
38.83 	0.052246 	4919 	0.052008
38.87 	0.050295 	4911 	0.049818
38.91 	0.052213 	4903 	0.051616
38.95 	0.048394 	4918 	0.048036
38.99 	0.050435 	4937 	0.049842
39.03 	0.047223 	4934 	0.046867
39.07 	0.042242 	4924 	0.041647
39.11 	0.049686 	4931 	0.049329
39.15 	0.050865 	4915 	0.049911
39.19 	0.047387 	4917 	0.046910
39.23 	0.049543 	4925 	0.048829
39.27 	0.041344 	4910 	0.040986
39.31 	0.045250 	4884 	0.044530
39.35 	0.053901 	4935 	0.053189
39.39 	0.046460 	4929 	0.045747
39.43 	0.046827 	4933 	0.045759
39.47 	0.048548 	4923 	0.047814
39.51 	0.049756 	4924 	0.049043
39.55 	0.042082 	4919 	0.041724
39.59 	0.052932 	4912 	0.052216
39.63 	0.048964 	4922 	0.048131
39.67 	0.040912 	4913 	0.040316
39.71 	0.053524 	4895 	0.052686
39.75 	0.050528 	4928 	0.049458
39.79 	0.044255 	4926 	0.043541
39.83 	0.048237 	4934 	0.047524
39.87 	0.050152 	4925 	0.048705
39.91 	0.046526 	4922 	0.045931
39.95 	0.052696 	4915 	0.052219
39.99 	0.041363 	4932 	0.040650
40.03 	0.048498 	4928 	0.047785
40.07 	0.047126 	4923 	0.046174
40.11 	0.048413 	4916 	0.048056
40.15 	0.049257 	4913 	0.048542
40.19 	0.045242 	4929 	0.044648
40.23 	0.055150 	4932 	0.054081
40.27 	0.045777 	4937 	0.044689
40.31 	0.044341 	4939 	0.043699
40.35 	0.045741 	4919 	0.045384
40.39 	0.040965 	4931 	0.040490
40.43 	0.050386 	4922 	0.049196
40.47 	0.042904 	4918 	0.041931
40.51 	0.044088 	4922 	0.043612
40.55 	0.042584 	4908 	0.042106
40.59 	0.042131 	4937 	0.041656
40.63 	0.051318 	4930 	0.050487
40.67 	0.045215 	4932 	0.044502
40.71 	0.040957 	4932 	0.040719
40.75 	0.052930 	4931 	0.052099
40.79 	0.040211 	4924 	0.039497
40.83 	0.044440 	4928 	0.043569
40.87 	0.044846 	4928 	0.044608
40.91 	0.047126 	4923 	0.046650
40.95 	0.046000 	4913 	0.045643
40.99 	0.043867 	4924 	0.043272
41.03 	0.046279 	4905 	0.045802
41.07 	0.045436 	4930 	0.044723
41.11 	0.040729 	4935 	0.040255
41.15 	0.045133 	4941 	0.044777
41.19 	0.044828 	4930 	0.044471
41.23 	0.045758 	4939 	0.045165
41.27 	0.045021 	4931 	0.044546
41.31 	0.046219 	4933 	0.045626
41.35 	0.043337 	4938 	0.042744
41.39 	0.048449 	4933 	0.047499
41.43 	0.045851 	4929 	0.045376
41.47 	0.042225 	4926 	0.041630
41.51 	0.036437 	4940 	0.035844
41.55 	0.045187 	4935 	0.044950
41.59 	0.041760 	4933 	0.041047
41.63 	0.041920 	4938 	0.041327
41.67 	0.036640 	4940 	0.036165
41.71 	0.041143 	4934 	0.040055
41.75 	0.045445 	4929 	0.044732
41.79 	0.044094 	4944 	0.043501
41.83 	0.044643 	4928 	0.044524
41.87 	0.044985 	4935 	0.044391
41.91 	0.043355 	4936 	0.042524
41.95 	0.043196 	4931 	0.042365
41.99 	0.048726 	4905 	0.048129
42.03 	0.036647 	4939 	0.036410
42.07 	0.045169 	4937 	0.044932
42.11 	0.044894 	4945 	0.044302
42.15 	0.032807 	4938 	0.032332
42.19 	0.041565 	4908 	0.040849
42.23 	0.046607 	4892 	0.045888
42.27 	0.043291 	4874 	0.042810
42.31 	0.043666 	4855 	0.043546
42.35 	0.039893 	4838 	0.039408
42.39 	0.044963 	4804 	0.044719
42.43 	0.047162 	4792 	0.046062
42.47 	0.037985 	4765 	0.037125
42.51 	0.038583 	4743 	0.038583
42.55 	0.040357 	4708 	0.039984
42.59 	0.041235 	4729 	0.040863
42.63 	0.044171 	4709 	0.044046
42.67 	0.041418 	4684 	0.041167
42.71 	0.034313 	4663 	0.033936
42.75 	0.043751 	4617 	0.043371
42.79 	0.047577 	4582 	0.047066
42.83 	0.039903 	4536 	0.039257
42.87 	0.041787 	4499 	0.041266
42.91 	0.037478 	4456 	0.037346
42.95 	0.035326 	4416 	0.035061
42.99 	0.040365 	4385 	0.040098
43.03 	0.043619 	4333 	0.042808
43.07 	0.041899 	4296 	0.041354
43.11 	0.042538 	4255 	0.041850
43.15 	0.041369 	4206 	0.040534
43.19 	0.039342 	4194 	0.038644
43.23 	0.036351 	4154 	0.035786
43.27 	0.040195 	4105 	0.039767
43.31 	0.038000 	4079 	0.037545
43.35 	0.050843 	4032 	0.050262
43.39 	0.039480 	4002 	0.039334
43.43 	0.042424 	3960 	0.041980
43.47 	0.039021 	3921 	0.038572
43.51 	0.042559 	3877 	0.042256
43.55 	0.036775 	2964 	0.035786
43.59 	0.039519 	1746 	0.039183
43.63 	0.047952 	1001 	0.046782
43.67 	0.039841 	502 	0.039841
43.71 	0.029289 	239 	0.029289
43.75 	0.000000 	16 	0.000000