File: Example_Data/25SC_s1_0007.003.dat
#F C:\frames\spec\25SC_s1_0007.003
#C title =s:7 frm:3 25SC_s1
#C wavelength =0.15406

#S 1  fr_average C:\frames\spec\25SC_s1_0007.003 C:\win32app\speccom\mask.axs chi 0 180 0 360 0.02
#C 2 theta =0.000000 to 180 deg
#C   q   =0.000000 to 81.568 nm^-1
#C  chi  =0.000000 to 360 deg
#C collumns:
#C  1 position (2theta or chi in degrees)
#C  2 average intensity (sum of all counts in the region divided with number of pixels)
#C  3 Number of pixels in region)
#C  4 error (sum of sqrt(intensity) for all pixels divided by number)
#N 4
#L TTh  Int  N_pix  Err
32.99 	0.065574 	61 	0.065574
33.03 	0.057513 	1391 	0.056249
33.07 	0.059512 	2050 	0.058655
33.11 	0.061652 	2579 	0.060289
33.15 	0.069023 	2999 	0.068437
33.19 	0.055955 	3342 	0.055604
33.23 	0.061028 	3523 	0.060030
33.27 	0.063085 	3630 	0.061956
33.31 	0.058743 	3660 	0.058423
33.35 	0.056849 	3694 	0.056215
33.39 	0.068383 	3729 	0.067440
33.43 	0.061154 	3761 	0.059908
33.47 	0.057135 	3798 	0.056364
33.51 	0.055046 	3815 	0.054432
33.55 	0.061931 	3843 	0.061321
33.59 	0.060825 	3880 	0.059315
33.63 	0.058688 	3919 	0.057493
33.67 	0.060445 	3954 	0.058371
33.71 	0.055597 	3975 	0.054419
33.75 	0.071768 	3999 	0.070596
33.79 	0.055927 	4041 	0.055347
33.83 	0.060988 	4050 	0.060264
33.87 	0.061542 	4111 	0.060260
33.91 	0.057363 	4149 	0.056069
33.95 	0.062664 	4181 	0.061824
33.99 	0.065000 	4200 	0.064024
34.03 	0.052545 	4244 	0.051717
34.07 	0.057170 	4268 	0.056209
34.11 	0.053928 	4302 	0.053111
34.15 	0.053106 	4331 	0.052294
34.19 	0.057542 	4362 	0.055797
34.23 	0.053039 	4393 	0.052106
34.27 	0.059928 	4422 	0.059265
34.31 	0.058098 	4458 	0.057178
34.35 	0.057092 	4484 	0.055633
34.39 	0.058863 	4502 	0.058082
34.43 	0.060586 	4539 	0.059425
34.47 	0.059451 	4592 	0.058048
34.51 	0.064481 	4606 	0.063295
34.55 	0.063321 	4643 	0.061534
34.59 	0.063957 	4675 	0.062955
34.63 	0.058386 	4710 	0.057267
34.67 	0.059692 	4741 	0.057962
34.71 	0.060638 	4766 	0.059266
34.75 	0.060732 	4808 	0.059494
34.79 	0.062396 	4824 	0.061911
34.83 	0.061703 	4862 	0.060378
34.87 	0.063887 	4868 	0.062443
34.91 	0.060016 	4882 	0.058697
34.95 	0.058078 	4890 	0.056520
34.99 	0.062691 	4897 	0.060897
35.03 	0.057657 	4943 	0.056117
35.07 	0.060121 	4940 	0.059647
35.11 	0.057611 	4947 	0.056900
35.15 	0.068260 	4937 	0.067311
35.19 	0.063739 	4942 	0.062752
35.23 	0.054196 	4945 	0.053367
35.27 	0.062449 	4948 	0.061009
35.31 	0.059396 	4933 	0.058446
35.35 	0.063537 	4942 	0.061759
35.39 	0.061072 	4945 	0.060006
35.43 	0.061220 	4933 	0.060270
35.47 	0.057392 	4931 	0.056323
35.51 	0.060495 	4926 	0.059425
35.55 	0.060263 	4945 	0.059296
35.59 	0.058847 	4945 	0.057900
35.63 	0.058669 	4943 	0.057839
35.67 	0.059692 	4942 	0.058152
35.71 	0.062184 	4937 	0.060997
35.75 	0.057798 	4931 	0.056491
35.79 	0.063869 	4932 	0.062443
35.83 	0.061059 	4946 	0.060704
35.87 	0.060126 	4923 	0.058460
35.91 	0.065354 	4927 	0.064403
35.95 	0.061013 	4917 	0.060298
35.99 	0.053655 	4939 	0.053180
36.03 	0.064333 	4943 	0.062556
36.07 	0.060336 	4939 	0.059506
36.11 	0.060459 	4929 	0.059389
36.15 	0.059931 	4939 	0.058113
36.19 	0.059919 	4940 	0.059445
36.23 	0.054509 	4935 	0.053302
36.27 	0.061726 	4925 	0.060893
36.31 	0.059456 	4928 	0.058862
36.35 	0.057618 	4929 	0.057024
36.39 	0.059338 	4921 	0.057671
36.43 	0.061891 	4928 	0.061297
36.47 	0.060373 	4936 	0.059305
36.51 	0.058382 	4933 	0.057789
36.55 	0.060889 	4927 	0.059700
36.59 	0.060944 	4939 	0.059876
36.63 	0.053742 	4931 	0.052791
36.67 	0.056389 	4930 	0.055677
36.71 	0.055477 	4921 	0.055000
36.75 	0.051982 	4944 	0.051015
36.79 	0.057712 	4921 	0.056879
36.83 	0.057986 	4915 	0.057151
36.87 	0.056432 	4944 	0.055603
36.91 	0.057276 	4941 	0.056565
36.95 	0.056152 	4933 	0.055084
36.99 	0.058561 	4935 	0.058443
37.03 	0.053209 	4924 	0.052138
37.07 	0.056940 	4935 	0.055635
37.11 	0.057548 	4935 	0.056480
37.15 	0.058260 	4909 	0.056948
37.19 	0.054822 	4925 	0.053851
37.23 	0.063237 	4918 	0.062522
37.27 	0.053331 	4894 	0.052114
37.31 	0.053495 	4935 	0.052764
37.35 	0.057513 	4938 	0.056564
37.39 	0.054147 	4931 	0.053553
37.43 	0.055353 	4932 	0.054878
37.47 	0.053561 	4929 	0.053204
37.51 	0.054531 	4933 	0.053224
37.55 	0.054564 	4930 	0.054089
37.59 	0.053306 	4915 	0.052472
37.63 	0.052450 	4919 	0.051854
37.67 	0.056077 	4904 	0.055340
37.71 	0.054981 	4929 	0.053792
37.75 	0.053441 	4940 	0.053323
37.79 	0.049493 	4930 	0.048760
37.83 	0.051423 	4920 	0.050470
37.87 	0.052642 	4939 	0.051693
37.91 	0.057201 	4930 	0.055894
37.95 	0.047551 	4921 	0.046837
37.99 	0.049471 	4912 	0.048755
38.03 	0.050927 	4909 	0.050211
38.07 	0.055612 	4909 	0.055015
38.11 	0.049848 	4935 	0.049492
38.15 	0.050630 	4918 	0.049916
38.19 	0.052333 	4930 	0.051739
38.23 	0.050830 	4938 	0.050119
38.27 	0.058621 	4930 	0.058502
38.31 	0.059062 	4927 	0.058349
38.35 	0.054789 	4928 	0.053957
38.39 	0.058871 	4909 	0.058155
38.43 	0.062653 	4916 	0.060965
38.47 	0.063175 	4907 	0.061007
38.51 	0.060219 	4932 	0.058912
38.55 	0.061386 	4936 	0.060318
38.59 	0.053818 	4924 	0.052609
38.63 	0.065597 	4924 	0.064645
38.67 	0.059550 	4937 	0.058364
38.71 	0.056458 	4924 	0.055506
38.75 	0.055003 	4927 	0.053814
38.79 	0.048439 	4934 	0.048202
38.83 	0.055702 	4919 	0.055226
38.87 	0.054775 	4911 	0.053582
38.91 	0.052213 	4903 	0.051377
38.95 	0.047377 	4918 	0.046781
38.99 	0.049220 	4937 	0.048746
39.03 	0.043778 	4934 	0.043303
39.07 	0.052803 	4924 	0.051970
39.11 	0.049686 	4931 	0.048973
39.15 	0.053713 	4915 	0.052998
39.19 	0.049217 	4917 	0.048740
39.23 	0.047513 	4925 	0.047037
39.27 	0.048676 	4910 	0.048199
39.31 	0.050164 	4884 	0.049204
39.35 	0.046606 	4935 	0.046131
39.39 	0.051532 	4929 	0.050938
39.43 	0.047030 	4933 	0.046318
39.47 	0.047735 	4923 	0.047497
39.51 	0.051381 	4924 	0.050548
39.55 	0.046757 	4919 	0.046043
39.59 	0.047231 	4912 	0.046874
39.63 	0.047135 	4922 	0.045945
39.67 	0.050275 	4913 	0.049917
39.71 	0.050664 	4895 	0.049228
39.75 	0.051948 	4928 	0.051235
39.79 	0.045879 	4926 	0.045166
39.83 	0.047021 	4934 	0.045952
39.87 	0.050152 	4925 	0.049795
39.91 	0.047948 	4922 	0.047591
39.95 	0.047813 	4915 	0.047098
39.99 	0.048459 	4932 	0.047984
40.03 	0.045860 	4928 	0.045266
40.07 	0.046516 	4923 	0.045921
40.11 	0.049024 	4916 	0.048408
40.15 	0.046815 	4913 	0.045980
40.19 	0.052343 	4929 	0.051987
40.23 	0.047242 	4932 	0.046886
40.27 	0.049220 	4937 	0.048864
40.31 	0.044948 	4939 	0.044355
40.35 	0.048384 	4919 	0.047431
40.39 	0.051105 	4931 	0.050630
40.43 	0.045916 	4922 	0.045440
40.47 	0.043310 	4918 	0.042596
40.51 	0.047948 	4922 	0.047234
40.55 	0.047474 	4908 	0.046877
40.59 	0.042536 	4937 	0.041705
40.63 	0.047262 	4930 	0.046668
40.67 	0.048054 	4932 	0.047578
40.71 	0.045012 	4932 	0.044300
40.75 	0.043399 	4931 	0.042567
40.79 	0.045898 	4924 	0.045422
40.83 	0.048498 	4928 	0.047647
40.87 	0.044034 	4928 	0.043440
40.91 	0.047735 	4923 	0.047002
40.95 	0.050071 	4913 	0.049714
40.99 	0.045491 	4924 	0.044897
41.03 	0.051580 	4905 	0.050625
41.07 	0.047667 	4930 	0.047311
41.11 	0.048227 	4935 	0.047396
41.15 	0.049180 	4941 	0.048588
41.19 	0.043611 	4930 	0.043016
41.23 	0.049808 	4939 	0.049333
41.27 	0.046644 	4931 	0.045436
41.31 	0.046422 	4933 	0.045947
41.35 	0.049008 	4938 	0.048059
41.39 	0.044192 	4933 	0.043598
41.43 	0.046054 	4929 	0.045222
41.47 	0.045676 	4926 	0.044586
41.51 	0.044534 	4940 	0.043685
41.55 	0.045593 	4935 	0.045118
41.59 	0.047233 	4933 	0.046639
41.63 	0.037870 	4938 	0.037514
41.67 	0.044737 	4940 	0.044263
41.71 	0.043575 	4934 	0.043456
41.75 	0.047474 	4929 	0.046880
41.79 	0.041464 	4944 	0.040753
41.83 	0.044846 	4928 	0.044133
41.87 	0.042958 	4935 	0.041771
41.91 	0.043355 	4936 	0.042643
41.95 	0.043805 	4931 	0.043329
41.99 	0.045464 	4905 	0.044986
42.03 	0.041304 	4939 	0.040355
42.07 	0.040916 	4937 	0.040303
42.11 	0.041860 	4945 	0.041505
42.15 	0.044147 	4938 	0.043792
42.19 	0.040750 	4908 	0.039676
42.23 	0.040270 	4892 	0.039412
42.27 	0.042470 	4874 	0.042230
42.31 	0.044490 	4855 	0.044249
42.35 	0.042373 	4838 	0.042131
42.39 	0.042048 	4804 	0.041195
42.43 	0.046119 	4792 	0.045630
42.47 	0.047849 	4765 	0.047357
42.51 	0.043643 	4743 	0.043149
42.55 	0.040994 	4708 	0.040621
42.59 	0.042927 	4729 	0.042431
42.63 	0.041198 	4709 	0.040576
42.67 	0.043339 	4684 	0.043214
42.71 	0.044606 	4663 	0.044355
42.75 	0.045051 	4617 	0.044924
42.79 	0.046486 	4582 	0.045719
42.83 	0.045194 	4536 	0.044290
42.87 	0.039787 	4499 	0.039266
42.91 	0.039722 	4456 	0.039196
42.95 	0.042799 	4416 	0.042136
42.99 	0.046522 	4385 	0.045454
43.03 	0.041311 	4333 	0.040905
43.07 	0.050745 	4296 	0.050041
43.11 	0.042773 	4255 	0.042360
43.15 	0.039230 	4206 	0.038812
43.19 	0.034573 	4194 	0.034154
43.23 	0.043332 	4154 	0.042768
43.27 	0.042387 	4105 	0.041674
43.31 	0.038245 	4079 	0.037814
43.35 	0.042411 	4032 	0.042120
43.39 	0.044728 	4002 	0.044581
43.43 	0.043687 	3960 	0.043243
43.47 	0.043611 	3921 	0.043313
43.51 	0.043332 	3877 	0.042879
43.55 	0.041835 	2964 	0.040847
43.59 	0.040664 	1746 	0.039267
43.63 	0.042957 	1001 	0.042372
43.67 	0.061753 	502 	0.059419
43.71 	0.041841 	239 	0.039390
43.75 	0.000000 	16 	0.000000