File: Example_Data/25SC_s1_0008.004.dat
#F C:\frames\spec\25SC_s1_0008.004
#C title =s:8 frm:4 25SC_s1
#C wavelength =0.15406

#S 1  fr_average C:\frames\spec\25SC_s1_0008.004 C:\win32app\speccom\mask.axs chi 0 180 0 360 0.02
#C 2 theta =0.000000 to 180 deg
#C   q   =0.000000 to 81.568 nm^-1
#C  chi  =0.000000 to 360 deg
#C collumns:
#C  1 position (2theta or chi in degrees)
#C  2 average intensity (sum of all counts in the region divided with number of pixels)
#C  3 Number of pixels in region)
#C  4 error (sum of sqrt(intensity) for all pixels divided by number)
#N 4
#L TTh  Int  N_pix  Err
32.99 	0.049180 	61 	0.049180
33.03 	0.058950 	1391 	0.058108
33.07 	0.064878 	2050 	0.063449
33.11 	0.060489 	2579 	0.058180
33.15 	0.054685 	2999 	0.053513
33.19 	0.059246 	3342 	0.057990
33.23 	0.061311 	3523 	0.059788
33.27 	0.056749 	3630 	0.056265
33.31 	0.053005 	3660 	0.051885
33.35 	0.059285 	3694 	0.058334
33.39 	0.057656 	3729 	0.056242
33.43 	0.068333 	3761 	0.066931
33.47 	0.056609 	3798 	0.055221
33.51 	0.053211 	3815 	0.052290
33.55 	0.050481 	3843 	0.050177
33.59 	0.060309 	3880 	0.059705
33.63 	0.054095 	3919 	0.053473
33.67 	0.057410 	3954 	0.056966
33.71 	0.060377 	3975 	0.058904
33.75 	0.059765 	3999 	0.058154
33.79 	0.054442 	4041 	0.053862
33.83 	0.064198 	4050 	0.063619
33.87 	0.062272 	4111 	0.060705
33.91 	0.058086 	4149 	0.057239
33.95 	0.056685 	4181 	0.055984
33.99 	0.056667 	4200 	0.056248
34.03 	0.062205 	4244 	0.061239
34.07 	0.064902 	4268 	0.063392
34.11 	0.058345 	4302 	0.057392
34.15 	0.060956 	4331 	0.060009
34.19 	0.065796 	4362 	0.064162
34.23 	0.055315 	4393 	0.054915
34.27 	0.062415 	4422 	0.061488
34.31 	0.058546 	4458 	0.057627
34.35 	0.057315 	4484 	0.056531
34.39 	0.062195 	4502 	0.061154
34.43 	0.062789 	4539 	0.061628
34.47 	0.055967 	4592 	0.055584
34.51 	0.060356 	4606 	0.059720
34.55 	0.060090 	4643 	0.059333
34.59 	0.065241 	4675 	0.063821
34.63 	0.069427 	4710 	0.068432
34.67 	0.063278 	4741 	0.062660
34.71 	0.062316 	4766 	0.061087
34.75 	0.056572 	4808 	0.055598
34.79 	0.062811 	4824 	0.061718
34.83 	0.055944 	4862 	0.055703
34.87 	0.063681 	4868 	0.062959
34.91 	0.064523 	4882 	0.062343
34.95 	0.054806 	4890 	0.054187
34.99 	0.051052 	4897 	0.050095
35.03 	0.060287 	4943 	0.059576
35.07 	0.060931 	4940 	0.060457
35.11 	0.065696 	4947 	0.064394
35.15 	0.065627 	4937 	0.064796
35.19 	0.055241 	4942 	0.053700
35.23 	0.056421 	4945 	0.054980
35.27 	0.058812 	4948 	0.058101
35.31 	0.058180 	4933 	0.057348
35.35 	0.060097 	4942 	0.058892
35.39 	0.058443 	4945 	0.057239
35.43 	0.063248 	4933 	0.062298
35.47 	0.065301 	4931 	0.064707
35.51 	0.066382 	4926 	0.065293
35.55 	0.062487 	4945 	0.060809
35.59 	0.058038 	4945 	0.057091
35.63 	0.058264 	4943 	0.056941
35.67 	0.060097 	4942 	0.059149
35.71 	0.061373 	4937 	0.060543
35.75 	0.057798 	4931 	0.056966
35.79 	0.065491 	4932 	0.063353
35.83 	0.059644 	4946 	0.058815
35.87 	0.057688 	4923 	0.057093
35.91 	0.058656 	4927 	0.058062
35.95 	0.059182 	4917 	0.058348
35.99 	0.060336 	4939 	0.058893
36.03 	0.055837 	4943 	0.054888
36.07 	0.057299 	4939 	0.056587
36.11 	0.068980 	4929 	0.067553
36.15 	0.056489 	4939 	0.055659
36.19 	0.059109 	4940 	0.057093
36.23 	0.061398 	4935 	0.059836
36.27 	0.055228 	4925 	0.054634
36.31 	0.062500 	4928 	0.060816
36.35 	0.062487 	4929 	0.061299
36.39 	0.053038 	4921 	0.052919
36.43 	0.060674 	4928 	0.059842
36.47 	0.061994 	4936 	0.060925
36.51 	0.061018 	4933 	0.060186
36.55 	0.058453 	4927 	0.057502
36.59 	0.056894 	4939 	0.056657
36.63 	0.054350 	4931 	0.053113
36.67 	0.053550 	4930 	0.052718
36.71 	0.059338 	4921 	0.058980
36.75 	0.065939 	4944 	0.065228
36.79 	0.060150 	4921 	0.059317
36.83 	0.062258 	4915 	0.061305
36.87 	0.063511 	4944 	0.062326
36.91 	0.058693 	4941 	0.057981
36.95 	0.055544 	4933 	0.054832
36.99 	0.055117 	4935 	0.053811
37.03 	0.054224 	4924 	0.053391
37.07 	0.059777 	4935 	0.058946
37.11 	0.058967 	4935 	0.058136
37.15 	0.057853 	4909 	0.056779
37.19 	0.058680 	4925 	0.057729
37.23 	0.058764 	4918 	0.058049
37.27 	0.057622 	4894 	0.057003
37.31 	0.051874 	4935 	0.050569
37.35 	0.053463 	4938 	0.052514
37.39 	0.052728 	4931 	0.051540
37.43 	0.050487 	4932 	0.050012
37.47 	0.057415 	4929 	0.056683
37.51 	0.057774 	4933 	0.056587
37.55 	0.056795 	4930 	0.055488
37.59 	0.058596 	4915 	0.057285
37.63 	0.051027 	4919 	0.050074
37.67 	0.050163 	4904 	0.049307
37.71 	0.055184 	4929 	0.054471
37.75 	0.054656 	4940 	0.054419
37.79 	0.061055 	4930 	0.059985
37.83 	0.055488 	4920 	0.054892
37.87 	0.051225 	4939 	0.050632
37.91 	0.059432 	4930 	0.058600
37.95 	0.055070 	4921 	0.053999
37.99 	0.059446 	4912 	0.058373
38.03 	0.063149 	4909 	0.061717
38.07 	0.055205 	4909 	0.054250
38.11 	0.056332 	4935 	0.055601
38.15 	0.055714 	4918 	0.054622
38.19 	0.064300 	4930 	0.062280
38.23 	0.058323 	4938 	0.057611
38.27 	0.068154 	4930 	0.066491
38.31 	0.066978 	4927 	0.065650
38.35 	0.067776 	4928 	0.066350
38.39 	0.073538 	4909 	0.071152
38.43 	0.066517 	4916 	0.065564
38.47 	0.067862 	4907 	0.066191
38.51 	0.060422 	4932 	0.059214
38.55 	0.061183 	4936 	0.060352
38.59 	0.061535 	4924 	0.059751
38.63 	0.058692 	4924 	0.057384
38.67 	0.059955 	4937 	0.059244
38.71 	0.061332 	4924 	0.060381
38.75 	0.050741 	4927 	0.050365
38.79 	0.062221 	4934 	0.061390
38.83 	0.056516 	4919 	0.056039
38.87 	0.063124 	4911 	0.062408
38.91 	0.058128 	4903 	0.056575
38.95 	0.054087 	4918 	0.052757
38.99 	0.052866 	4937 	0.051798
39.03 	0.061005 	4934 	0.059680
39.07 	0.048538 	4924 	0.048062
39.11 	0.058203 	4931 	0.057728
39.15 	0.049440 	4915 	0.048725
39.19 	0.051251 	4917 	0.050417
39.23 	0.050964 	4925 	0.050251
39.27 	0.054786 	4910 	0.054190
39.31 	0.057125 	4884 	0.055566
39.35 	0.057143 	4935 	0.056193
39.39 	0.055589 	4929 	0.054876
39.43 	0.054328 	4933 	0.053853
39.47 	0.052610 	4923 	0.051758
39.51 	0.053818 	4924 	0.053223
39.55 	0.051433 	4919 	0.050838
39.59 	0.056393 	4912 	0.054703
39.63 	0.051605 	4922 	0.050415
39.67 	0.058213 	4913 	0.057498
39.71 	0.056588 	4895 	0.055870
39.75 	0.053369 	4928 	0.052517
39.79 	0.055217 	4926 	0.054266
39.83 	0.056749 	4934 	0.055562
39.87 	0.057868 	4925 	0.057392
39.91 	0.058106 	4922 	0.056797
39.95 	0.054730 	4915 	0.053539
39.99 	0.054136 	4932 	0.052810
40.03 	0.057630 	4928 	0.057016
40.07 	0.054235 	4923 	0.053283
40.11 	0.051668 	4916 	0.051072
40.15 	0.053328 	4913 	0.052732
40.19 	0.056198 	4929 	0.054990
40.23 	0.054947 	4932 	0.054235
40.27 	0.056512 	4937 	0.055563
40.31 	0.049605 	4939 	0.049131
40.35 	0.046961 	4919 	0.046008
40.39 	0.050497 	4931 	0.050022
40.43 	0.048151 	4922 	0.047675
40.47 	0.051037 	4918 	0.050561
40.51 	0.053027 	4922 	0.052075
40.55 	0.049104 	4908 	0.048507
40.59 	0.047397 	4937 	0.047160
40.63 	0.053955 	4930 	0.053480
40.67 	0.048865 	4932 	0.048014
40.71 	0.056164 	4932 	0.055332
40.75 	0.054350 	4931 	0.053518
40.79 	0.051178 	4924 	0.050345
40.83 	0.054586 	4928 	0.053635
40.87 	0.051948 	4928 	0.051235
40.91 	0.056470 	4923 	0.054903
40.95 	0.050885 	4913 	0.049673
40.99 	0.052803 	4924 	0.052089
41.03 	0.055046 	4905 	0.054090
41.07 	0.053144 	4930 	0.052431
41.11 	0.048632 	4935 	0.047683
41.15 	0.054240 	4941 	0.053410
41.19 	0.057201 	4930 	0.056607
41.23 	0.048188 	4939 	0.047713
41.27 	0.047860 	4931 	0.047504
41.31 	0.049260 	4933 	0.049023
41.35 	0.056501 	4938 	0.055058
41.39 	0.051895 	4933 	0.051420
41.43 	0.052749 	4929 	0.052036
41.47 	0.047097 	4926 	0.046126
41.51 	0.056275 	4940 	0.054971
41.55 	0.058967 	4935 	0.057760
41.59 	0.048855 	4933 	0.047905
41.63 	0.055286 	4938 	0.054574
41.67 	0.044534 	4940 	0.043586
41.71 	0.048034 	4934 	0.047203
41.75 	0.050517 	4929 	0.049804
41.79 	0.047532 	4944 	0.047058
41.83 	0.047078 	4928 	0.046127
41.87 	0.048430 	4935 	0.047836
41.91 	0.056929 	4936 	0.056454
41.95 	0.048063 	4931 	0.047826
41.99 	0.050968 	4905 	0.050013
42.03 	0.050618 	4939 	0.050262
42.07 	0.046587 	4937 	0.046112
42.11 	0.050152 	4945 	0.049184
42.15 	0.044350 	4938 	0.043520
42.19 	0.048289 	4908 	0.046976
42.23 	0.047833 	4892 	0.047115
42.27 	0.044317 	4874 	0.043596
42.31 	0.044696 	4855 	0.043610
42.35 	0.043613 	4838 	0.042887
42.39 	0.050999 	4804 	0.050268
42.43 	0.051336 	4792 	0.050093
42.47 	0.048898 	4765 	0.048284
42.51 	0.045541 	4743 	0.045047
42.55 	0.045879 	4708 	0.045382
42.59 	0.044407 	4729 	0.043911
42.63 	0.048206 	4709 	0.047335
42.67 	0.049744 	4684 	0.049244
42.71 	0.050611 	4663 	0.050109
42.75 	0.045701 	4617 	0.045193
42.79 	0.047577 	4582 	0.046938
42.83 	0.045855 	4536 	0.045468
42.87 	0.044232 	4499 	0.043581
42.91 	0.050494 	4456 	0.049705
42.95 	0.048687 	4416 	0.047891
42.99 	0.044698 	4385 	0.044030
43.03 	0.044773 	4333 	0.044097
43.07 	0.049814 	4296 	0.048723
43.11 	0.039718 	4255 	0.038892
43.15 	0.050880 	4206 	0.050300
43.19 	0.043157 	4194 	0.042878
43.23 	0.050554 	4154 	0.049285
43.27 	0.047259 	4105 	0.046546
43.31 	0.048296 	4079 	0.047865
43.35 	0.047123 	4032 	0.046687
43.39 	0.046227 	4002 	0.045202
43.43 	0.037879 	3960 	0.037879
43.47 	0.051262 	3921 	0.050665
43.51 	0.048749 	3877 	0.048145
43.55 	0.052294 	2964 	0.051306
43.59 	0.045819 	1746 	0.045819
43.63 	0.056943 	1001 	0.055187
43.67 	0.053785 	502 	0.052618
43.71 	0.046025 	239 	0.046025
43.75 	0.000000 	16 	0.000000