File: Example_Data/25SC_s1_0020.002.dat
#F C:\frames\spec\25SC_s1_0020.002
#C title =s:20 frm:2 25SC_s1
#C wavelength =0.15406

#S 1  fr_average C:\frames\spec\25SC_s1_0020.002 C:\win32app\speccom\mask.axs chi 0 180 0 360 0.02
#C 2 theta =0.000000 to 180 deg
#C   q   =0.000000 to 81.568 nm^-1
#C  chi  =0.000000 to 360 deg
#C collumns:
#C  1 position (2theta or chi in degrees)
#C  2 average intensity (sum of all counts in the region divided with number of pixels)
#C  3 Number of pixels in region)
#C  4 error (sum of sqrt(intensity) for all pixels divided by number)
#N 4
#L TTh  Int  N_pix  Err
32.99 	0.049180 	61 	0.049180
33.03 	0.063983 	1391 	0.063562
33.07 	0.062439 	2050 	0.061296
33.11 	0.067468 	2579 	0.065651
33.15 	0.059353 	2999 	0.058572
33.19 	0.061341 	3342 	0.059237
33.23 	0.059608 	3523 	0.058278
33.27 	0.055372 	3630 	0.054726
33.31 	0.050273 	3660 	0.049953
33.35 	0.058744 	3694 	0.057475
33.39 	0.048270 	3729 	0.047485
33.43 	0.046530 	3761 	0.045596
33.47 	0.059768 	3798 	0.058997
33.51 	0.055832 	3815 	0.055065
33.55 	0.057767 	3843 	0.057310
33.59 	0.059021 	3880 	0.058115
33.63 	0.056902 	3919 	0.055856
33.67 	0.062468 	3954 	0.061431
33.71 	0.061132 	3975 	0.060248
33.75 	0.055514 	3999 	0.054781
33.79 	0.060629 	4041 	0.059759
33.83 	0.057284 	4050 	0.056416
33.87 	0.052055 	4111 	0.051343
33.91 	0.053025 	4149 	0.052460
33.95 	0.055967 	4181 	0.054426
33.99 	0.060952 	4200 	0.060534
34.03 	0.057022 	4244 	0.055895
34.07 	0.058575 	4268 	0.057340
34.11 	0.062297 	4302 	0.061071
34.15 	0.057262 	4331 	0.055887
34.19 	0.053187 	4362 	0.052247
34.23 	0.058275 	4393 	0.057741
34.27 	0.061284 	4422 	0.059562
34.31 	0.059892 	4458 	0.059104
34.35 	0.061775 	4484 	0.059816
34.39 	0.055753 	4502 	0.055102
34.43 	0.052214 	4539 	0.051182
34.47 	0.055531 	4592 	0.054766
34.51 	0.049501 	4606 	0.048738
34.55 	0.059660 	4643 	0.058398
34.59 	0.053690 	4675 	0.052416
34.63 	0.050106 	4710 	0.049857
34.67 	0.065809 	4741 	0.064697
34.71 	0.062946 	4766 	0.062208
34.75 	0.059276 	4808 	0.058667
34.79 	0.057836 	4824 	0.057107
34.83 	0.057795 	4862 	0.056811
34.87 	0.055053 	4868 	0.054452
34.91 	0.058173 	4882 	0.056613
34.95 	0.057055 	4890 	0.055737
34.99 	0.054727 	4897 	0.054129
35.03 	0.061097 	4943 	0.060385
35.07 	0.058502 	4940 	0.057316
35.11 	0.055387 	4947 	0.054558
35.15 	0.056917 	4937 	0.055968
35.19 	0.058074 	4942 	0.057125
35.23 	0.054196 	4945 	0.053584
35.27 	0.062449 	4948 	0.061147
35.31 	0.056761 	4933 	0.055454
35.35 	0.066370 	4942 	0.064948
35.39 	0.056421 	4945 	0.055354
35.43 	0.060409 	4933 	0.059341
35.47 	0.063476 	4931 	0.062288
35.51 	0.056841 	4926 	0.056366
35.55 	0.059050 	4945 	0.057865
35.59 	0.063498 	4945 	0.062413
35.63 	0.057657 	4943 	0.055860
35.67 	0.060097 	4942 	0.059603
35.71 	0.059955 	4937 	0.058532
35.75 	0.056986 	4931 	0.056036
35.79 	0.049676 	4932 	0.049082
35.83 	0.055803 	4946 	0.054954
35.87 	0.058501 	4923 	0.057668
35.91 	0.052973 	4927 	0.051784
35.95 	0.060606 	4917 	0.059534
35.99 	0.060336 	4939 	0.059012
36.03 	0.059883 	4943 	0.058560
36.07 	0.055274 	4939 	0.054326
36.11 	0.061067 	4929 	0.060473
36.15 	0.060134 	4939 	0.059303
36.19 	0.058300 	4940 	0.057707
36.23 	0.054711 	4935 	0.053406
36.27 	0.050355 	4925 	0.049404
36.31 	0.056615 	4928 	0.055189
36.35 	0.052952 	4929 	0.052120
36.39 	0.058321 	4921 	0.057250
36.43 	0.057427 	4928 	0.056833
36.47 	0.054092 	4936 	0.052906
36.51 	0.062031 	4933 	0.061437
36.55 	0.053988 	4927 	0.053156
36.59 	0.059121 	4939 	0.057698
36.63 	0.061042 	4931 	0.060211
36.67 	0.057809 	4930 	0.056621
36.71 	0.062182 	4921 	0.061349
36.75 	0.057443 	4944 	0.055746
36.79 	0.054664 	4921 	0.054068
36.83 	0.053510 	4915 	0.052914
36.87 	0.051375 	4944 	0.051138
36.91 	0.052823 	4941 	0.051599
36.95 	0.054328 	4933 	0.053141
36.99 	0.056130 	4935 	0.055180
37.03 	0.059708 	4924 	0.058280
37.07 	0.048227 	4935 	0.047633
37.11 	0.060182 	4935 	0.058995
37.15 	0.057242 	4909 	0.056406
37.19 	0.056853 	4925 	0.056020
37.23 	0.054697 	4918 	0.054101
37.27 	0.052922 	4894 	0.051845
37.31 	0.057751 	4935 	0.056920
37.35 	0.058323 	4938 	0.057493
37.39 	0.046644 	4931 	0.045693
37.43 	0.057380 	4932 	0.057024
37.47 	0.056604 	4929 	0.054821
37.51 	0.048855 	4933 	0.048142
37.55 	0.056592 	4930 	0.055523
37.59 	0.054934 	4915 	0.053861
37.63 	0.052856 	4919 	0.052023
37.67 	0.050367 	4904 	0.049153
37.71 	0.053763 	4929 	0.053050
37.75 	0.054251 	4940 	0.053065
37.79 	0.052333 	4930 	0.051857
37.83 	0.053252 	4920 	0.052538
37.87 	0.051630 	4939 	0.051037
37.91 	0.054361 	4930 	0.053173
37.95 	0.056493 	4921 	0.055302
37.99 	0.055782 	4912 	0.055305
38.03 	0.051334 	4909 	0.050738
38.07 	0.051538 	4909 	0.050583
38.11 	0.052482 	4935 	0.052007
38.15 	0.050224 	4918 	0.049747
38.19 	0.050304 	4930 	0.050067
38.23 	0.054678 	4938 	0.053729
38.27 	0.054970 	4930 	0.054375
38.31 	0.056627 	4927 	0.055676
38.35 	0.058036 	4928 	0.056490
38.39 	0.062131 	4909 	0.060818
38.43 	0.060822 	4916 	0.059749
38.47 	0.058488 	4907 	0.057533
38.51 	0.064882 	4932 	0.063220
38.55 	0.062804 	4936 	0.062329
38.59 	0.063972 	4924 	0.062664
38.63 	0.055646 	4924 	0.054337
38.67 	0.059145 	4937 	0.057840
38.71 	0.058692 	4924 	0.057126
38.75 	0.056627 	4927 	0.055794
38.79 	0.054925 	4934 	0.053856
38.83 	0.052246 	4919 	0.051512
38.87 	0.049481 	4911 	0.049123
38.91 	0.048746 	4903 	0.048387
38.95 	0.046360 	4918 	0.045507
38.99 	0.045979 	4937 	0.045149
39.03 	0.044386 	4934 	0.043911
39.07 	0.049959 	4924 	0.049365
39.11 	0.048874 	4931 	0.048280
39.15 	0.047406 	4915 	0.047168
39.19 	0.049420 	4917 	0.048825
39.23 	0.042437 	4925 	0.041961
39.27 	0.045825 	4910 	0.045228
39.31 	0.046274 	4884 	0.045794
39.35 	0.048430 	4935 	0.047836
39.39 	0.043822 	4929 	0.043466
39.43 	0.045408 	4933 	0.044815
39.47 	0.045907 	4923 	0.045312
39.51 	0.042851 	4924 	0.042138
39.55 	0.048384 	4919 	0.047788
39.59 	0.048656 	4912 	0.047464
39.63 	0.046323 	4922 	0.045609
39.67 	0.042947 	4913 	0.042590
39.71 	0.046578 	4895 	0.045980
39.75 	0.045455 	4928 	0.044622
39.79 	0.045676 	4926 	0.045081
39.83 	0.049453 	4934 	0.049215
39.87 	0.044873 	4925 	0.043783
39.91 	0.041447 	4922 	0.040713
39.95 	0.052085 	4915 	0.051609
39.99 	0.048256 	4932 	0.048138
40.03 	0.043628 	4928 	0.042915
40.07 	0.041641 	4923 	0.041403
40.11 	0.043124 	4916 	0.043005
40.15 	0.042133 	4913 	0.041298
40.19 	0.041996 	4929 	0.041878
40.23 	0.042579 	4932 	0.041985
40.27 	0.041726 	4937 	0.040876
40.31 	0.043531 	4939 	0.043057
40.35 	0.043911 	4919 	0.043316
40.39 	0.041777 	4931 	0.041658
40.43 	0.041650 	4922 	0.040817
40.47 	0.041074 	4918 	0.040835
40.51 	0.045916 	4922 	0.045321
40.55 	0.043806 	4908 	0.042971
40.59 	0.037270 	4937 	0.037151
40.63 	0.042191 	4930 	0.041834
40.67 	0.040146 	4932 	0.039790
40.71 	0.046837 	4932 	0.046124
40.75 	0.045630 	4931 	0.044541
40.79 	0.046710 	4924 	0.045520
40.83 	0.037744 	4928 	0.037149
40.87 	0.043831 	4928 	0.043475
40.91 	0.040219 	4923 	0.039743
40.95 	0.040708 	4913 	0.040351
40.99 	0.042851 	4924 	0.041900
41.03 	0.046483 	4905 	0.046244
41.07 	0.039554 	4930 	0.039197
41.11 	0.042148 	4935 	0.041436
41.15 	0.044930 	4941 	0.044575
41.19 	0.044828 	4930 	0.044352
41.23 	0.037255 	4939 	0.037017
41.27 	0.041979 	4931 	0.041148
41.31 	0.042976 	4933 	0.042382
41.35 	0.042527 	4938 	0.041816
41.39 	0.039124 	4933 	0.038649
41.43 	0.046865 	4929 	0.046509
41.47 	0.042225 	4926 	0.041987
41.51 	0.036640 	4940 	0.036165
41.55 	0.041540 	4935 	0.040828
41.59 	0.042165 	4933 	0.041809
41.63 	0.039085 	4938 	0.038729
41.67 	0.037652 	4940 	0.037533
41.71 	0.042156 	4934 	0.041682
41.75 	0.042808 	4929 	0.042332
41.79 	0.040655 	4944 	0.040063
41.83 	0.044643 	4928 	0.044286
41.87 	0.033637 	4935 	0.033519
41.91 	0.043760 	4936 	0.043404
41.95 	0.038126 	4931 	0.038007
41.99 	0.037920 	4905 	0.037323
42.03 	0.037862 	4939 	0.037150
42.07 	0.034839 	4937 	0.034246
42.11 	0.040445 	4945 	0.039853
42.15 	0.035439 	4938 	0.034609
42.19 	0.038101 	4908 	0.037624
42.23 	0.041087 	4892 	0.040848
42.27 	0.038777 	4874 	0.038296
42.31 	0.038929 	4855 	0.038688
42.35 	0.037412 	4838 	0.037170
42.39 	0.041007 	4804 	0.040642
42.43 	0.041736 	4792 	0.040514
42.47 	0.046380 	4765 	0.046134
42.51 	0.037951 	4743 	0.037457
42.55 	0.036321 	4708 	0.035699
42.59 	0.038063 	4729 	0.037691
42.63 	0.043958 	4709 	0.043585
42.67 	0.038642 	4684 	0.038392
42.71 	0.035814 	4663 	0.035563
42.75 	0.038120 	4617 	0.037739
42.79 	0.035356 	4582 	0.034972
42.83 	0.038801 	4536 	0.038413
42.87 	0.039120 	4499 	0.038859
42.91 	0.036804 	4456 	0.036673
42.95 	0.043025 	4416 	0.042627
42.99 	0.040821 	4385 	0.039997
43.03 	0.038080 	4333 	0.037674
43.07 	0.036313 	4296 	0.035631
43.11 	0.040423 	4255 	0.039735
43.15 	0.035901 	4206 	0.035483
43.19 	0.032904 	4194 	0.032485
43.23 	0.040202 	4154 	0.039779
43.27 	0.039464 	4105 	0.038870
43.31 	0.037754 	4079 	0.037324
43.35 	0.032242 	4032 	0.031806
43.39 	0.041479 	4002 	0.040894
43.43 	0.039141 	3960 	0.038993
43.47 	0.040296 	3921 	0.039848
43.51 	0.034821 	3877 	0.034670
43.55 	0.039811 	2964 	0.039613
43.59 	0.047537 	1746 	0.047537
43.63 	0.034965 	1001 	0.034380
43.67 	0.039841 	502 	0.038674
43.71 	0.029289 	239 	0.029289
43.75 	0.125000 	16 	0.125000