File: Example_Data/25SC_s1_0011.003.dat
#F C:\frames\spec\25SC_s1_0011.003
#C title =s:11 frm:3 25SC_s1
#C wavelength =0.15406

#S 1  fr_average C:\frames\spec\25SC_s1_0011.003 C:\win32app\speccom\mask.axs chi 0 180 0 360 0.02
#C 2 theta =0.000000 to 180 deg
#C   q   =0.000000 to 81.568 nm^-1
#C  chi  =0.000000 to 360 deg
#C collumns:
#C  1 position (2theta or chi in degrees)
#C  2 average intensity (sum of all counts in the region divided with number of pixels)
#C  3 Number of pixels in region)
#C  4 error (sum of sqrt(intensity) for all pixels divided by number)
#N 4
#L TTh  Int  N_pix  Err
32.99 	0.065574 	61 	0.065574
33.03 	0.058950 	1391 	0.058529
33.07 	0.058049 	2050 	0.057477
33.11 	0.071345 	2579 	0.070210
33.15 	0.055018 	2999 	0.054628
33.19 	0.068821 	3342 	0.067068
33.23 	0.061028 	3523 	0.060362
33.27 	0.061708 	3630 	0.061224
33.31 	0.062842 	3660 	0.061081
33.35 	0.057390 	3694 	0.056571
33.39 	0.059265 	3729 	0.058794
33.43 	0.054507 	3761 	0.053572
33.47 	0.062665 	3798 	0.061276
33.51 	0.058191 	3815 	0.057577
33.55 	0.062451 	3843 	0.061384
33.59 	0.057732 	3880 	0.057128
33.63 	0.062261 	3919 	0.061065
33.67 	0.059181 	3954 	0.058736
33.71 	0.066667 	3975 	0.065635
33.75 	0.060265 	3999 	0.059533
33.79 	0.067558 	4041 	0.066833
33.83 	0.064444 	4050 	0.063143
33.87 	0.062758 	4111 	0.061903
33.91 	0.062666 	4149 	0.061536
33.95 	0.063860 	4181 	0.062319
33.99 	0.054286 	4200 	0.053728
34.03 	0.055844 	4244 	0.055153
34.07 	0.061153 	4268 	0.060329
34.11 	0.061367 	4302 	0.060005
34.15 	0.059801 	4331 	0.058449
34.19 	0.056625 	4362 	0.056088
34.23 	0.066469 	4393 	0.065114
34.27 	0.062641 	4422 	0.061714
34.31 	0.058322 	4458 	0.057271
34.35 	0.060437 	4484 	0.059653
34.39 	0.058641 	4502 	0.057990
34.43 	0.064111 	4539 	0.063079
34.47 	0.056402 	4592 	0.055637
34.51 	0.062527 	4606 	0.061891
34.55 	0.060737 	4643 	0.059601
34.59 	0.057112 	4675 	0.056069
34.63 	0.062633 	4710 	0.061638
34.67 	0.060747 	4741 	0.059635
34.71 	0.063156 	4766 	0.061804
34.75 	0.059900 	4808 	0.058804
34.79 	0.064055 	4824 	0.062355
34.83 	0.054504 	4862 	0.053059
34.87 	0.061422 	4868 	0.059617
34.91 	0.061655 	4882 	0.060695
34.95 	0.058487 	4890 	0.057768
34.99 	0.059833 	4897 	0.058756
35.03 	0.067368 	4943 	0.066538
35.07 	0.061943 	4940 	0.060619
35.11 	0.061654 	4947 	0.060825
35.15 	0.053474 	4937 	0.052287
35.19 	0.055038 	4942 	0.054564
35.23 	0.058645 	4945 	0.057204
35.27 	0.059014 	4948 	0.058185
35.31 	0.060815 	4933 	0.059865
35.35 	0.062121 	4942 	0.060580
35.39 	0.065116 	4945 	0.063083
35.43 	0.066694 	4933 	0.065269
35.47 	0.062665 	4931 	0.061438
35.51 	0.058668 	4926 	0.057598
35.55 	0.058645 	4945 	0.057579
35.59 	0.061072 	4945 	0.059631
35.63 	0.056848 	4943 	0.055307
35.67 	0.060704 	4942 	0.060349
35.71 	0.059753 	4937 	0.058685
35.75 	0.061854 	4931 	0.061022
35.79 	0.067113 	4932 	0.066143
35.83 	0.064092 	4946 	0.063026
35.87 	0.062360 	4923 	0.060813
35.91 	0.057642 	4927 	0.056928
35.95 	0.067317 	4917 	0.066126
35.99 	0.065195 	4939 	0.064009
36.03 	0.059478 	4943 	0.058293
36.07 	0.060741 	4939 	0.059911
36.11 	0.060661 	4929 	0.060186
36.15 	0.059121 	4939 	0.058291
36.19 	0.058704 	4940 	0.058092
36.23 	0.063019 	4935 	0.061575
36.27 	0.054416 	4925 	0.053584
36.31 	0.055601 	4928 	0.054412
36.35 	0.061879 	4929 	0.061166
36.39 	0.060354 	4921 	0.059639
36.43 	0.059253 	4928 	0.058183
36.47 	0.059157 	4936 	0.058089
36.51 	0.061626 	4933 	0.061032
36.55 	0.062107 	4927 	0.061037
36.59 	0.056894 	4939 	0.055945
36.63 	0.056784 	4931 	0.056665
36.67 	0.057201 	4930 	0.056607
36.71 	0.059541 	4921 	0.058707
36.75 	0.055016 	4944 	0.053476
36.79 	0.058321 	4921 	0.057369
36.83 	0.060834 	4915 	0.059642
36.87 	0.058859 	4944 	0.058385
36.91 	0.059300 	4941 	0.057957
36.95 	0.055544 	4933 	0.054238
36.99 	0.054509 	4935 	0.053421
37.03 	0.058489 	4924 	0.057537
37.07 	0.061601 	4935 	0.060394
37.11 	0.052077 	4935 	0.051602
37.15 	0.055816 	4909 	0.054265
37.19 	0.055025 	4925 	0.053360
37.23 	0.056934 	4918 	0.056219
37.27 	0.058848 	4894 	0.057651
37.31 	0.057953 	4935 	0.056866
37.35 	0.059943 	4938 	0.058738
37.39 	0.055770 	4931 	0.054819
37.43 	0.061841 	4932 	0.061128
37.47 	0.060864 	4929 	0.059676
37.51 	0.057977 	4933 	0.056196
37.55 	0.055172 	4930 	0.054341
37.59 	0.055341 	4915 	0.054387
37.63 	0.053263 	4919 	0.052310
37.67 	0.049144 	4904 	0.047830
37.71 	0.055995 	4929 	0.055044
37.75 	0.053036 	4940 	0.052206
37.79 	0.051521 	4930 	0.050571
37.83 	0.052846 	4920 	0.051516
37.87 	0.054667 	4939 	0.053955
37.91 	0.049087 	4930 	0.048018
37.95 	0.052022 	4921 	0.051189
37.99 	0.052117 	4912 	0.051759
38.03 	0.049094 	4909 	0.048378
38.07 	0.060909 	4909 	0.060073
38.11 	0.051266 	4935 	0.050673
38.15 	0.057544 	4918 	0.055995
38.19 	0.060041 	4930 	0.059209
38.23 	0.054678 	4938 	0.053591
38.27 	0.053955 	4930 	0.053124
38.31 	0.055206 	4927 	0.054255
38.35 	0.054992 	4928 	0.054259
38.39 	0.059890 	4909 	0.058458
38.43 	0.063670 	4916 	0.062836
38.47 	0.059914 	4907 	0.059198
38.51 	0.056975 	4932 	0.056262
38.55 	0.060373 	4936 	0.059285
38.59 	0.055240 	4924 	0.054407
38.63 	0.061332 	4924 	0.060143
38.67 	0.063804 	4937 	0.063329
38.71 	0.057677 	4924 	0.057082
38.75 	0.057033 	4927 	0.056438
38.79 	0.061613 	4934 	0.060307
38.83 	0.056312 	4919 	0.055479
38.87 	0.050703 	4911 	0.050225
38.91 	0.052621 	4903 	0.051904
38.95 	0.044937 	4918 	0.043865
38.99 	0.047397 	4937 	0.046685
39.03 	0.052898 	4934 	0.052305
39.07 	0.048132 	4924 	0.047537
39.11 	0.047860 	4931 	0.046891
39.15 	0.048627 	4915 	0.048031
39.19 	0.049624 	4917 	0.048671
39.23 	0.049746 	4925 	0.049270
39.27 	0.048065 	4910 	0.047588
39.31 	0.053030 	4884 	0.052431
39.35 	0.054306 	4935 	0.053119
39.39 	0.047271 	4929 	0.046439
39.43 	0.052504 	4933 	0.051791
39.47 	0.046923 	4923 	0.046328
39.51 	0.049959 	4924 	0.049365
39.55 	0.048384 	4919 	0.047431
39.59 	0.043974 	4912 	0.043020
39.63 	0.051808 	4922 	0.050975
39.67 	0.051292 	4913 	0.050100
39.71 	0.049847 	4895 	0.048530
39.75 	0.053166 	4928 	0.052314
39.79 	0.048518 	4926 	0.048280
39.83 	0.051480 	4934 	0.050767
39.87 	0.045279 	4925 	0.044566
39.91 	0.053027 	4922 	0.052313
39.95 	0.047202 	4915 	0.046845
39.99 	0.040552 	4932 	0.040076
40.03 	0.053774 	4928 	0.052942
40.07 	0.049563 	4923 	0.048849
40.11 	0.051261 	4916 	0.050665
40.15 	0.050275 	4913 	0.050036
40.19 	0.049503 	4929 	0.049146
40.23 	0.042376 	4932 	0.041426
40.27 	0.053879 	4937 	0.053029
40.31 	0.045353 	4939 	0.044523
40.35 	0.043911 	4919 	0.043554
40.39 	0.050091 	4931 	0.049260
40.43 	0.044291 	4922 	0.043696
40.47 	0.044327 	4918 	0.043374
40.51 	0.050183 	4922 	0.049588
40.55 	0.042380 	4908 	0.042260
40.59 	0.046992 	4937 	0.046755
40.63 	0.044625 	4930 	0.044149
40.67 	0.049878 	4932 	0.049047
40.71 	0.053731 	4932 	0.052424
40.75 	0.049686 	4931 	0.048735
40.79 	0.045288 	4924 	0.044813
40.83 	0.045860 	4928 	0.045028
40.87 	0.046469 	4928 	0.046113
40.91 	0.043469 	4923 	0.042755
40.95 	0.043151 	4913 	0.042793
40.99 	0.048741 	4924 	0.048384
41.03 	0.053823 	4905 	0.053206
41.07 	0.048276 	4930 	0.047543
41.11 	0.045795 	4935 	0.044608
41.15 	0.046145 	4941 	0.045670
41.19 	0.043813 	4930 	0.043219
41.23 	0.047176 	4939 	0.046701
41.27 	0.043399 	4931 	0.042785
41.31 	0.043584 	4933 	0.043109
41.35 	0.048198 	4938 	0.047605
41.39 	0.047638 	4933 	0.047401
41.43 	0.044837 	4929 	0.044837
41.47 	0.048112 	4926 	0.047280
41.51 	0.047571 	4940 	0.046978
41.55 	0.042351 	4935 	0.041994
41.59 	0.043179 	4933 	0.042585
41.63 	0.041717 	4938 	0.041361
41.67 	0.044332 	4940 	0.043601
41.71 	0.043373 	4934 	0.042898
41.75 	0.047677 	4929 	0.046845
41.79 	0.039644 	4944 	0.039644
41.83 	0.041193 	4928 	0.040361
41.87 	0.047416 	4935 	0.046704
41.91 	0.041734 	4936 	0.041378
41.95 	0.038937 	4931 	0.038700
41.99 	0.045668 	4905 	0.045190
42.03 	0.046163 	4939 	0.045096
42.07 	0.044561 	4937 	0.044324
42.11 	0.047321 	4945 	0.046373
42.15 	0.038882 	4938 	0.038764
42.19 	0.039324 	4908 	0.039085
42.23 	0.044971 	4892 	0.044253
42.27 	0.044727 	4874 	0.043886
42.31 	0.041195 	4855 	0.040350
42.35 	0.048160 	4838 	0.047434
42.39 	0.049958 	4804 	0.048861
42.43 	0.039858 	4792 	0.039491
42.47 	0.044491 	4765 	0.043876
42.51 	0.047017 	4743 	0.045411
42.55 	0.046092 	4708 	0.045449
42.59 	0.038274 	4729 	0.037779
42.63 	0.041622 	4709 	0.041249
42.67 	0.045901 	4684 	0.044755
42.71 	0.043534 	4663 	0.042760
42.75 	0.045484 	4617 	0.044596
42.79 	0.041903 	4582 	0.041264
42.83 	0.042769 	4536 	0.042640
42.87 	0.039342 	4499 	0.038951
42.91 	0.039497 	4456 	0.039234
42.95 	0.043478 	4416 	0.042815
42.99 	0.036944 	4385 	0.036410
43.03 	0.041542 	4333 	0.041001
43.07 	0.044460 	4296 	0.043642
43.11 	0.040658 	4255 	0.040658
43.15 	0.041845 	4206 	0.041566
43.19 	0.040773 	4194 	0.040493
43.23 	0.049350 	4154 	0.048645
43.27 	0.040926 	4105 	0.040212
43.31 	0.051483 	4079 	0.050478
43.35 	0.041171 	4032 	0.040590
43.39 	0.036732 	4002 	0.036439
43.43 	0.045455 	3960 	0.044715
43.47 	0.042591 	3921 	0.041844
43.51 	0.042817 	3877 	0.042212
43.55 	0.039474 	2964 	0.039276
43.59 	0.044101 	1746 	0.043765
43.63 	0.046953 	1001 	0.045783
43.67 	0.049801 	502 	0.049801
43.71 	0.037657 	239 	0.037657
43.75 	0.000000 	16 	0.000000