File: Example_Data/25SC_s1_0018.001.dat
#F C:\frames\spec\25SC_s1_0018.001
#C title =s:18 frm:1 25SC_s1
#C wavelength =0.15406

#S 1  fr_average C:\frames\spec\25SC_s1_0018.001 C:\win32app\speccom\mask.axs chi 0 180 0 360 0.02
#C 2 theta =0.000000 to 180 deg
#C   q   =0.000000 to 81.568 nm^-1
#C  chi  =0.000000 to 360 deg
#C collumns:
#C  1 position (2theta or chi in degrees)
#C  2 average intensity (sum of all counts in the region divided with number of pixels)
#C  3 Number of pixels in region)
#C  4 error (sum of sqrt(intensity) for all pixels divided by number)
#N 4
#L TTh  Int  N_pix  Err
32.99 	0.098361 	61 	0.098361
33.03 	0.054637 	1391 	0.053374
33.07 	0.053659 	2050 	0.052230
33.11 	0.066305 	2579 	0.064942
33.15 	0.062354 	2999 	0.061377
33.19 	0.056553 	3342 	0.056202
33.23 	0.063014 	3523 	0.062516
33.27 	0.061157 	3630 	0.058845
33.31 	0.051366 	3660 	0.050726
33.35 	0.067407 	3694 	0.066138
33.39 	0.052025 	3729 	0.051239
33.43 	0.059825 	3761 	0.059202
33.47 	0.052923 	3798 	0.051997
33.51 	0.062123 	3815 	0.061202
33.55 	0.055686 	3843 	0.053489
33.59 	0.060052 	3880 	0.059146
33.63 	0.068130 	3919 	0.067083
33.67 	0.063480 	3954 	0.062295
33.71 	0.057610 	3975 	0.057021
33.75 	0.057764 	3999 	0.057032
33.79 	0.058401 	4041 	0.057387
33.83 	0.047901 	4050 	0.047467
33.87 	0.060083 	4111 	0.058943
33.91 	0.055917 	4149 	0.055494
33.95 	0.062425 	4181 	0.060884
33.99 	0.060714 	4200 	0.059436
34.03 	0.057493 	4244 	0.056803
34.07 	0.057404 	4268 	0.056718
34.11 	0.056020 	4302 	0.054795
34.15 	0.058647 	4331 	0.057024
34.19 	0.059147 	4362 	0.058073
34.23 	0.054405 	4393 	0.053583
34.27 	0.056083 	4422 	0.055267
34.31 	0.058771 	4458 	0.058114
34.35 	0.057984 	4484 	0.057069
34.39 	0.060862 	4502 	0.059691
34.43 	0.056400 	4539 	0.054851
34.47 	0.053354 	4592 	0.052461
34.51 	0.054277 	4606 	0.053768
34.55 	0.055352 	4643 	0.054469
34.59 	0.056898 	4675 	0.056522
34.63 	0.058599 	4710 	0.058226
34.67 	0.053786 	4741 	0.053292
34.71 	0.055392 	4766 	0.054040
34.75 	0.048877 	4808 	0.048024
34.79 	0.058043 	4824 	0.056950
34.83 	0.066434 	4862 	0.065711
34.87 	0.057313 	4868 	0.056350
34.91 	0.053667 	4882 	0.052827
34.95 	0.060532 	4890 	0.058855
34.99 	0.059628 	4897 	0.058532
35.03 	0.052600 	4943 	0.051889
35.07 	0.058704 	4940 	0.057637
35.11 	0.057611 	4947 	0.057137
35.15 	0.059550 	4937 	0.057889
35.19 	0.053015 	4942 	0.052067
35.23 	0.054398 	4945 	0.053194
35.27 	0.051536 	4948 	0.050451
35.31 	0.060612 	4933 	0.060018
35.35 	0.057467 	4942 	0.056163
35.39 	0.058443 	4945 	0.057140
35.43 	0.053923 	4933 	0.053329
35.47 	0.062868 	4931 	0.061680
35.51 	0.055623 	4926 	0.054910
35.55 	0.058241 	4945 	0.057648
35.59 	0.060465 	4945 	0.059399
35.63 	0.061906 	4943 	0.061195
35.67 	0.056657 	4942 	0.055571
35.71 	0.052258 	4937 	0.051428
35.75 	0.052119 	4931 	0.051525
35.79 	0.063260 	4932 	0.061548
35.83 	0.058835 	4946 	0.057414
35.87 	0.064392 	4923 	0.063440
35.91 	0.054394 	4927 	0.053443
35.95 	0.061216 	4917 	0.060382
35.99 	0.057097 	4939 	0.056148
36.03 	0.053004 	4943 	0.052530
36.07 	0.056084 	4939 	0.055254
36.11 	0.059038 	4929 	0.057969
36.15 	0.062361 	4939 	0.061037
36.19 	0.059919 	4940 	0.058595
36.23 	0.057953 	4935 	0.056648
36.27 	0.056650 	4925 	0.055817
36.31 	0.057427 	4928 	0.056476
36.35 	0.060864 	4929 	0.059181
36.39 	0.056289 	4921 	0.055575
36.43 	0.063515 	4928 	0.061969
36.47 	0.060170 	4936 	0.059458
36.51 	0.055950 	4933 	0.054505
36.55 	0.058453 	4927 	0.056670
36.59 	0.055679 	4939 	0.054493
36.63 	0.056784 	4931 	0.055695
36.67 	0.052738 	4930 	0.051907
36.71 	0.062386 	4921 	0.060600
36.75 	0.058455 	4944 	0.057270
36.79 	0.061979 	4921 	0.061027
36.83 	0.061241 	4915 	0.060288
36.87 	0.058859 	4944 	0.058148
36.91 	0.061931 	4941 	0.060588
36.95 	0.059396 	4933 	0.058683
36.99 	0.058156 	4935 	0.056831
37.03 	0.059098 	4924 	0.057651
37.07 	0.058156 	4935 	0.057088
37.11 	0.059777 	4935 	0.059184
37.15 	0.057446 	4909 	0.056610
37.19 	0.050761 	4925 	0.049691
37.23 	0.054087 	4918 	0.052419
37.27 	0.057622 	4894 	0.056784
37.31 	0.055724 	4935 	0.054775
37.35 	0.055893 	4938 	0.055063
37.39 	0.059217 	4931 	0.058267
37.43 	0.056975 	4932 	0.056262
37.47 	0.052546 	4929 	0.051477
37.51 	0.056152 	4933 	0.055321
37.55 	0.057404 	4930 	0.056434
37.59 	0.058800 	4915 	0.058204
37.63 	0.056312 	4919 	0.055121
37.67 	0.057504 	4904 	0.056548
37.71 	0.056401 	4929 	0.055331
37.75 	0.054656 	4940 	0.053688
37.79 	0.052130 	4930 	0.051655
37.83 	0.055488 	4920 	0.054773
37.87 	0.048188 	4939 	0.047832
37.91 	0.055172 	4930 	0.053747
37.95 	0.057915 	4921 	0.056844
37.99 	0.066368 	4912 	0.065414
38.03 	0.055612 	4909 	0.054300
38.07 	0.056834 	4909 	0.055880
38.11 	0.051469 	4935 	0.050876
38.15 	0.053477 	4918 	0.052762
38.19 	0.061258 	4930 	0.060069
38.23 	0.059336 	4938 	0.057556
38.27 	0.055781 	4930 	0.055187
38.31 	0.060686 	4927 	0.059378
38.35 	0.064529 	4928 	0.063222
38.39 	0.064983 	4909 	0.063670
38.43 	0.066721 	4916 	0.065648
38.47 	0.060933 	4907 	0.059978
38.51 	0.066302 	4932 	0.063926
38.55 	0.068679 	4936 	0.067591
38.59 	0.064582 	4924 	0.063630
38.63 	0.070471 	4924 	0.068925
38.67 	0.077780 	4937 	0.075763
38.71 	0.070471 	4924 	0.068767
38.75 	0.072052 	4927 	0.070863
38.79 	0.069518 	4934 	0.067855
38.83 	0.067697 	4919 	0.066744
38.87 	0.059662 	4911 	0.058231
38.91 	0.057924 	4903 	0.056470
38.95 	0.060187 	4918 	0.059592
38.99 	0.054081 	4937 	0.052539
39.03 	0.054925 	4934 	0.054193
39.07 	0.047929 	4924 	0.047215
39.11 	0.053944 	4931 	0.053469
39.15 	0.043540 	4915 	0.043540
39.19 	0.046573 	4917 	0.045620
39.23 	0.049543 	4925 	0.048473
39.27 	0.047251 	4910 	0.046296
39.31 	0.046478 	4884 	0.045999
39.35 	0.042351 	4935 	0.042113
39.39 	0.049503 	4929 	0.049146
39.43 	0.043989 	4933 	0.043633
39.47 	0.045501 	4923 	0.044787
39.51 	0.048741 	4924 	0.047789
39.55 	0.050213 	4919 	0.049499
39.59 	0.042752 	4912 	0.042275
39.63 	0.048151 	4922 	0.047794
39.67 	0.049461 	4913 	0.048984
39.71 	0.044944 	4895 	0.044345
39.75 	0.040990 	4928 	0.040039
39.79 	0.045676 	4926 	0.045676
39.83 	0.046210 	4934 	0.045498
39.87 	0.047310 	4925 	0.046477
39.91 	0.045713 	4922 	0.044979
39.95 	0.050458 	4915 	0.049366
39.99 	0.037916 	4932 	0.037441
40.03 	0.046672 	4928 	0.046315
40.07 	0.044891 	4923 	0.044534
40.11 	0.047600 	4916 	0.046527
40.15 	0.041522 	4913 	0.041165
40.19 	0.047880 	4929 	0.047167
40.23 	0.042985 	4932 	0.042747
40.27 	0.048613 	4937 	0.047901
40.31 	0.044138 	4939 	0.043308
40.35 	0.048384 	4919 	0.046955
40.39 	0.045630 	4931 	0.045273
40.43 	0.039009 	4922 	0.038890
40.47 	0.044327 	4918 	0.043851
40.51 	0.039009 	4922 	0.038651
40.55 	0.045436 	4908 	0.044601
40.59 	0.042536 	4937 	0.041705
40.63 	0.043408 	4930 	0.043151
40.67 	0.038524 	4932 	0.038049
40.71 	0.039740 	4932 	0.039028
40.75 	0.042385 	4931 	0.041197
40.79 	0.048132 	4924 	0.047775
40.83 	0.046469 	4928 	0.045499
40.87 	0.037744 	4928 	0.037030
40.91 	0.041641 	4923 	0.041165
40.95 	0.035416 	4913 	0.035059
40.99 	0.047319 	4924 	0.046605
41.03 	0.042202 	4905 	0.041844
41.07 	0.040771 	4930 	0.040177
41.11 	0.040729 	4935 	0.040017
41.15 	0.042097 	4941 	0.041860
41.19 	0.041988 	4930 	0.041275
41.23 	0.043329 	4939 	0.042498
41.27 	0.043805 	4931 	0.043448
41.31 	0.039732 	4933 	0.039257
41.35 	0.042325 	4938 	0.041969
41.39 	0.040543 	4933 	0.039831
41.43 	0.037533 	4929 	0.037176
41.47 	0.037556 	4926 	0.037318
41.51 	0.044130 	4940 	0.043892
41.55 	0.041540 	4935 	0.041421
41.59 	0.042773 	4933 	0.042536
41.63 	0.042325 	4938 	0.042206
41.67 	0.041296 	4940 	0.040209
41.71 	0.044589 	4934 	0.043876
41.75 	0.044837 	4929 	0.044480
41.79 	0.042071 	4944 	0.041716
41.83 	0.044846 	4928 	0.044251
41.87 	0.041540 	4935 	0.040947
41.91 	0.038290 	4936 	0.037578
41.95 	0.042791 	4931 	0.042553
41.99 	0.040775 	4905 	0.040416
42.03 	0.043531 	4939 	0.043057
42.07 	0.042131 	4937 	0.041894
42.11 	0.038423 	4945 	0.038186
42.15 	0.046173 	4938 	0.045461
42.19 	0.041361 	4908 	0.040645
42.23 	0.037817 	4892 	0.037697
42.27 	0.036931 	4874 	0.036810
42.31 	0.044284 	4855 	0.043922
42.35 	0.037826 	4838 	0.037583
42.39 	0.042048 	4804 	0.041682
42.43 	0.037980 	4792 	0.037369
42.47 	0.037775 	4765 	0.037284
42.51 	0.041746 	4743 	0.041252
42.55 	0.038870 	4708 	0.038746
42.59 	0.036371 	4729 	0.036247
42.63 	0.038437 	4709 	0.038188
42.67 	0.040777 	4684 	0.040152
42.71 	0.038602 	4663 	0.037848
42.75 	0.036387 	4617 	0.036260
42.79 	0.043213 	4582 	0.042701
42.83 	0.040564 	4536 	0.040156
42.87 	0.043121 	4499 	0.042730
42.91 	0.038375 	4456 	0.038244
42.95 	0.038496 	4416 	0.038098
42.99 	0.039453 	4385 	0.038384
43.03 	0.038541 	4333 	0.037865
43.07 	0.040968 	4296 	0.040287
43.11 	0.040423 	4255 	0.040010
43.15 	0.038754 	4206 	0.038336
43.19 	0.040773 	4194 	0.040214
43.23 	0.036832 	4154 	0.036550
43.27 	0.042144 	4105 	0.041430
43.31 	0.038490 	4079 	0.037915
43.35 	0.039931 	4032 	0.039059
43.39 	0.044478 	4002 	0.043600
43.43 	0.033838 	3960 	0.033838
43.47 	0.036980 	3921 	0.036682
43.51 	0.035595 	3877 	0.034688
43.55 	0.042848 	2964 	0.042057
43.59 	0.045819 	1746 	0.045148
43.63 	0.040959 	1001 	0.040374
43.67 	0.043825 	502 	0.042658
43.71 	0.029289 	239 	0.029289
43.75 	0.000000 	16 	0.000000