File: Example_Data/25SC_s1_0033.000.dat
#F C:\frames\spec\25SC_s1_0033.000
#C title =s:33 frm:0 25SC_s1
#C wavelength =0.15406

#S 1  fr_average C:\frames\spec\25SC_s1_0033.000 C:\win32app\speccom\mask.axs chi 0 180 0 360 0.02
#C 2 theta =0.000000 to 180 deg
#C   q   =0.000000 to 81.568 nm^-1
#C  chi  =0.000000 to 360 deg
#C collumns:
#C  1 position (2theta or chi in degrees)
#C  2 average intensity (sum of all counts in the region divided with number of pixels)
#C  3 Number of pixels in region)
#C  4 error (sum of sqrt(intensity) for all pixels divided by number)
#N 4
#L TTh  Int  N_pix  Err
32.99 	0.065574 	61 	0.065574
33.03 	0.058231 	1391 	0.057389
33.07 	0.067805 	2050 	0.065425
33.11 	0.074447 	2579 	0.072593
33.15 	0.057686 	2999 	0.057491
33.19 	0.051167 	3342 	0.050641
33.23 	0.061028 	3523 	0.060529
33.27 	0.062810 	3630 	0.062003
33.31 	0.058470 	3660 	0.057670
33.35 	0.059827 	3694 	0.059192
33.39 	0.070260 	3729 	0.068689
33.43 	0.057697 	3761 	0.056582
33.47 	0.071090 	3798 	0.069548
33.51 	0.072608 	3815 	0.071840
33.55 	0.054124 	3843 	0.053515
33.59 	0.057474 	3880 	0.057172
33.63 	0.060730 	3919 	0.059833
33.67 	0.061204 	3954 	0.060019
33.71 	0.068428 	3975 	0.067101
33.75 	0.065766 	3999 	0.064009
33.79 	0.067805 	4041 	0.066645
33.83 	0.065679 	4050 	0.063775
33.87 	0.058623 	4111 	0.057911
33.91 	0.067486 	4149 	0.066192
33.95 	0.065295 	4181 	0.063171
33.99 	0.057143 	4200 	0.056445
34.03 	0.062677 	4244 	0.061412
34.07 	0.062559 	4268 	0.061163
34.11 	0.063924 	4302 	0.062812
34.15 	0.053106 	4331 	0.052565
34.19 	0.054333 	4362 	0.053930
34.23 	0.056453 	4393 	0.055253
34.27 	0.058797 	4422 	0.058113
34.31 	0.058995 	4458 	0.057681
34.35 	0.061552 	4484 	0.060747
34.39 	0.059085 	4502 	0.058174
34.43 	0.058383 	4539 	0.057480
34.47 	0.062936 	4592 	0.062043
34.51 	0.053843 	4606 	0.052571
34.55 	0.057721 	4643 	0.056817
34.59 	0.061390 	4675 	0.060513
34.63 	0.057962 	4710 	0.057091
34.67 	0.056106 	4741 	0.055118
34.71 	0.058120 	4766 	0.057628
34.75 	0.058236 	4808 	0.057211
34.79 	0.058250 	4824 	0.057400
34.83 	0.054093 	4862 	0.052647
34.87 	0.050123 	4868 	0.049642
34.91 	0.057558 	4882 	0.056459
34.95 	0.058282 	4890 	0.057084
34.99 	0.059016 	4897 	0.058398
35.03 	0.054825 	4943 	0.053995
35.07 	0.049190 	4940 	0.048835
35.11 	0.054174 	4947 	0.053345
35.15 	0.061171 	4937 	0.059609
35.19 	0.058276 	4942 	0.057446
35.23 	0.056623 	4945 	0.056149
35.27 	0.051334 	4948 	0.050742
35.31 	0.054733 	4933 	0.054140
35.35 	0.058276 	4942 	0.056972
35.39 	0.053792 	4945 	0.053081
35.43 	0.067707 	4933 	0.066481
35.47 	0.052119 	4931 	0.051050
35.51 	0.056841 	4926 	0.056366
35.55 	0.051972 	4945 	0.051379
35.59 	0.057634 	4945 	0.056923
35.63 	0.055027 	4943 	0.054435
35.67 	0.052408 	4942 	0.051223
35.71 	0.057930 	4937 	0.056981
35.75 	0.052119 	4931 	0.051169
35.79 	0.051703 	4932 	0.051109
35.83 	0.053781 	4946 	0.053426
35.87 	0.063782 	4923 	0.062949
35.91 	0.055409 	4927 	0.054458
35.95 	0.059182 	4917 	0.058706
35.99 	0.056084 	4939 	0.055135
36.03 	0.053409 	4943 	0.052935
36.07 	0.056489 	4939 	0.056015
36.11 	0.056198 	4929 	0.055247
36.15 	0.056287 	4939 	0.054982
36.19 	0.056073 	4940 	0.055124
36.23 	0.056738 	4935 	0.055432
36.27 	0.058883 	4925 	0.057912
36.31 	0.058442 	4928 	0.057966
36.35 	0.057010 	4929 	0.056296
36.39 	0.064621 	4921 	0.063312
36.43 	0.056615 	4928 	0.055764
36.47 	0.060373 	4936 	0.059423
36.51 	0.057977 	4933 	0.057264
36.55 	0.053176 	4927 	0.052582
36.59 	0.056084 	4939 	0.055610
36.63 	0.060231 	4931 	0.059043
36.67 	0.060649 	4930 	0.059936
36.71 	0.058118 	4921 	0.056908
36.75 	0.059264 	4944 	0.058316
36.79 	0.057305 	4921 	0.056710
36.83 	0.057782 	4915 	0.056829
36.87 	0.051982 	4944 	0.051153
36.91 	0.057478 	4941 	0.056411
36.95 	0.055342 	4933 	0.054392
36.99 	0.057345 	4935 	0.056277
37.03 	0.056864 	4924 	0.055794
37.07 	0.057751 	4935 	0.057039
37.11 	0.060182 	4935 	0.058620
37.15 	0.056427 	4909 	0.055592
37.19 	0.061523 	4925 	0.060571
37.23 	0.058357 	4918 	0.056690
37.27 	0.052309 	4894 	0.051092
37.31 	0.057143 	4935 	0.056193
37.35 	0.061766 	4938 	0.060817
37.39 	0.054350 	4931 	0.053637
37.43 	0.058597 	4932 	0.058122
37.47 	0.057415 	4929 	0.056702
37.51 	0.057977 	4933 	0.056295
37.55 	0.055172 	4930 	0.054222
37.59 	0.055341 	4915 	0.054268
37.63 	0.046351 	4919 	0.045517
37.67 	0.058116 	4904 	0.057280
37.71 	0.057821 	4929 	0.056870
37.75 	0.052834 	4940 	0.051767
37.79 	0.055984 	4930 	0.055033
37.83 	0.052846 	4920 	0.051893
37.87 	0.059931 	4939 	0.058745
37.91 	0.053753 	4930 	0.053158
37.95 	0.059338 	4921 	0.058266
37.99 	0.053135 	4912 	0.052777
38.03 	0.050519 	4909 	0.049803
38.07 	0.061316 	4909 	0.059765
38.11 	0.056332 	4935 	0.055027
38.15 	0.058560 	4918 	0.057727
38.19 	0.052535 	4930 	0.051585
38.23 	0.063791 	4938 	0.062367
38.27 	0.067140 	4930 	0.065595
38.31 	0.069413 	4927 	0.067967
38.35 	0.066356 	4928 	0.064454
38.39 	0.070686 	4909 	0.069851
38.43 	0.074247 	4916 	0.073056
38.47 	0.081312 	4907 	0.079621
38.51 	0.077859 	4932 	0.075840
38.55 	0.086507 	4936 	0.085083
38.59 	0.075345 	4924 	0.074136
38.63 	0.084890 	4924 	0.082630
38.67 	0.075552 	4937 	0.074365
38.71 	0.071080 	4924 	0.069038
38.75 	0.069819 	4927 	0.067898
38.79 	0.069518 	4934 	0.068449
38.83 	0.058548 	4919 	0.057596
38.87 	0.056200 	4911 	0.054869
38.91 	0.060575 	4903 	0.059261
38.95 	0.052664 	4918 	0.052068
38.99 	0.054487 	4937 	0.053636
39.03 	0.053912 	4934 	0.053081
39.07 	0.045085 	4924 	0.044728
39.11 	0.056378 	4931 	0.054952
39.15 	0.047406 	4915 	0.046333
39.19 	0.046573 	4917 	0.045977
39.23 	0.044467 	4925 	0.043753
39.27 	0.043788 	4910 	0.043430
39.31 	0.044636 	4884 	0.044156
39.35 	0.051874 	4935 	0.051043
39.39 	0.045648 	4929 	0.045054
39.43 	0.046219 	4933 	0.045606
39.47 	0.047735 	4923 	0.047259
39.51 	0.048944 	4924 	0.048468
39.55 	0.049400 	4919 	0.048448
39.59 	0.052932 	4912 	0.052097
39.63 	0.046323 	4922 	0.045252
39.67 	0.048239 	4913 	0.048120
39.71 	0.046987 	4895 	0.046029
39.75 	0.046063 	4928 	0.045469
39.79 	0.044661 	4926 	0.043710
39.83 	0.043778 	4934 	0.043303
39.87 	0.043249 	4925 	0.042773
39.91 	0.040837 	4922 	0.039885
39.95 	0.040285 	4915 	0.039689
39.99 	0.041768 	4932 	0.040917
40.03 	0.046672 	4928 	0.046078
40.07 	0.045907 	4923 	0.044955
40.11 	0.042921 	4916 	0.042564
40.15 	0.049461 	4913 	0.049103
40.19 	0.044431 	4929 	0.043718
40.23 	0.042782 	4932 	0.041832
40.27 	0.044967 	4937 	0.044255
40.31 	0.043126 	4939 	0.042770
40.35 	0.039845 	4919 	0.038873
40.39 	0.044818 	4931 	0.044225
40.43 	0.040228 	4922 	0.039751
40.47 	0.045140 	4918 	0.044545
40.51 	0.039821 	4922 	0.039345
40.55 	0.041565 	4908 	0.041207
40.59 	0.045372 	4937 	0.044422
40.63 	0.044422 	4930 	0.043828
40.67 	0.043796 	4932 	0.043321
40.71 	0.036294 	4932 	0.035819
40.75 	0.043602 	4931 	0.043602
40.79 	0.042242 	4924 	0.041766
40.83 	0.043425 	4928 	0.042831
40.87 	0.040584 	4928 	0.039990
40.91 	0.040016 	4923 	0.039183
40.95 	0.038469 	4913 	0.038112
40.99 	0.038993 	4924 	0.038517
41.03 	0.045872 	4905 	0.045274
41.07 	0.037120 	4930 	0.036763
41.11 	0.044377 	4935 	0.044258
41.15 	0.047156 	4941 	0.046327
41.19 	0.042191 	4930 	0.041715
41.23 	0.044746 	4939 	0.044390
41.27 	0.037721 	4931 	0.036869
41.31 	0.038111 	4933 	0.037992
41.35 	0.035642 	4938 	0.035405
41.39 	0.041557 	4933 	0.041201
41.43 	0.047474 	4929 	0.046761
41.47 	0.036338 	4926 	0.035862
41.51 	0.038866 	4940 	0.038273
41.55 	0.042958 	4935 	0.042108
41.59 	0.039935 	4933 	0.039698
41.63 	0.042325 	4938 	0.042206
41.67 	0.042510 	4940 	0.042154
41.71 	0.040738 	4934 	0.040263
41.75 	0.037533 	4929 	0.037176
41.79 	0.041464 	4944 	0.040753
41.83 	0.042208 	4928 	0.041851
41.87 	0.040324 	4935 	0.039849
41.91 	0.037682 	4936 	0.037445
41.95 	0.042385 	4931 	0.042029
41.99 	0.036290 	4905 	0.036170
42.03 	0.042519 	4939 	0.042044
42.07 	0.041118 	4937 	0.040762
42.11 	0.038018 	4945 	0.037663
42.15 	0.035844 	4938 	0.035489
42.19 	0.040139 	4908 	0.039780
42.23 	0.043540 	4892 	0.042942
42.27 	0.036931 	4874 	0.036810
42.31 	0.036869 	4855 	0.036507
42.35 	0.034725 	4838 	0.034362
42.39 	0.039550 	4804 	0.039063
42.43 	0.035476 	4792 	0.034987
42.47 	0.038825 	4765 	0.038190
42.51 	0.039637 	4743 	0.039390
42.55 	0.040569 	4708 	0.039947
42.59 	0.034468 	4729 	0.033973
42.63 	0.044171 	4709 	0.043424
42.67 	0.033945 	4684 	0.033820
42.71 	0.038816 	4663 	0.038314
42.75 	0.035954 	4617 	0.035700
42.79 	0.035356 	4582 	0.035100
42.83 	0.043210 	4536 	0.042048
42.87 	0.038231 	4499 	0.037059
42.91 	0.040844 	4456 	0.040581
42.95 	0.038723 	4416 	0.038192
42.99 	0.035804 	4385 	0.035403
43.03 	0.036926 	4333 	0.036791
43.07 	0.035149 	4296 	0.035149
43.11 	0.037133 	4255 	0.036995
43.15 	0.034712 	4206 	0.034294
43.19 	0.041726 	4194 	0.041307
43.23 	0.042369 	4154 	0.041946
43.27 	0.037759 	4105 	0.037188
43.31 	0.037264 	4079 	0.036690
43.35 	0.043651 	4032 	0.043215
43.39 	0.043478 	4002 	0.042746
43.43 	0.035859 	3960 	0.035563
43.47 	0.039021 	3921 	0.038572
43.51 	0.034047 	3877 	0.033594
43.55 	0.037449 	2964 	0.036856
43.59 	0.035510 	1746 	0.035174
43.63 	0.044955 	1001 	0.044955
43.67 	0.029880 	502 	0.028714
43.71 	0.033473 	239 	0.031022
43.75 	0.187500 	16 	0.150888