File: Example_Data/25SC_s1_0032.000.dat
#F C:\frames\spec\25SC_s1_0032.000
#C title =s:32 frm:0 25SC_s1
#C wavelength =0.15406

#S 1  fr_average C:\frames\spec\25SC_s1_0032.000 C:\win32app\speccom\mask.axs chi 0 180 0 360 0.02
#C 2 theta =0.000000 to 180 deg
#C   q   =0.000000 to 81.568 nm^-1
#C  chi  =0.000000 to 360 deg
#C collumns:
#C  1 position (2theta or chi in degrees)
#C  2 average intensity (sum of all counts in the region divided with number of pixels)
#C  3 Number of pixels in region)
#C  4 error (sum of sqrt(intensity) for all pixels divided by number)
#N 4
#L TTh  Int  N_pix  Err
32.99 	0.081967 	61 	0.081967
33.03 	0.056794 	1391 	0.055040
33.07 	0.052195 	2050 	0.052195
33.11 	0.065142 	2579 	0.064460
33.15 	0.072357 	2999 	0.070990
33.19 	0.062238 	3342 	0.060982
33.23 	0.057905 	3523 	0.056741
33.27 	0.058953 	3630 	0.057662
33.31 	0.058470 	3660 	0.057190
33.35 	0.063346 	3694 	0.061734
33.39 	0.057388 	3729 	0.056446
33.43 	0.056102 	3761 	0.055012
33.47 	0.056345 	3798 	0.055086
33.51 	0.058978 	3815 	0.058210
33.55 	0.065053 	3843 	0.063377
33.59 	0.065979 	3880 	0.064923
33.63 	0.071192 	3919 	0.069846
33.67 	0.060951 	3954 	0.060062
33.71 	0.053836 	3975 	0.052658
33.75 	0.059515 	3999 	0.057904
33.79 	0.054689 	4041 	0.054110
33.83 	0.062963 	4050 	0.062095
33.87 	0.065191 	4111 	0.064194
33.91 	0.065317 	4149 	0.063482
33.95 	0.053337 	4181 	0.052636
33.99 	0.062381 	4200 	0.060707
34.03 	0.051838 	4244 	0.051125
34.07 	0.061153 	4268 	0.059918
34.11 	0.059042 	4302 	0.057681
34.15 	0.060263 	4331 	0.059046
34.19 	0.055479 	4362 	0.054673
34.23 	0.061689 	4393 	0.060222
34.27 	0.058118 	4422 	0.057191
34.31 	0.063257 	4458 	0.061264
34.35 	0.056200 	4484 	0.055547
34.39 	0.060195 	4502 	0.059155
34.43 	0.057281 	4539 	0.057023
34.47 	0.054878 	4592 	0.053730
34.51 	0.053843 	4606 	0.053080
34.55 	0.055998 	4643 	0.054863
34.59 	0.057968 	4675 	0.057216
34.63 	0.051380 	4710 	0.050758
34.67 	0.057583 	4741 	0.056594
34.71 	0.055602 	4766 	0.054496
34.75 	0.060108 	4808 	0.059255
34.79 	0.059080 	4824 	0.057987
34.83 	0.058001 	4862 	0.057278
34.87 	0.060600 	4868 	0.059758
34.91 	0.058378 	4882 	0.057158
34.95 	0.055624 	4890 	0.054665
34.99 	0.058403 	4897 	0.057446
35.03 	0.062715 	4943 	0.061648
35.07 	0.063968 	4940 	0.063019
35.11 	0.061249 	4947 	0.060065
35.15 	0.057930 	4937 	0.056743
35.19 	0.057467 	4942 	0.056025
35.23 	0.054601 	4945 	0.053771
35.27 	0.059014 	4948 	0.058303
35.31 	0.057166 	4933 	0.056097
35.35 	0.056050 	4942 	0.054983
35.39 	0.059252 	4945 	0.058423
35.43 	0.059599 	4933 	0.058292
35.47 	0.057595 	4931 	0.055912
35.51 	0.067803 	4926 	0.066376
35.55 	0.055410 	4945 	0.054462
35.59 	0.056623 	4945 	0.055201
35.63 	0.060085 	4943 	0.058663
35.67 	0.052206 	4942 	0.051257
35.71 	0.055297 	4937 	0.054110
35.75 	0.055770 	4931 	0.054819
35.79 	0.051500 	4932 	0.051263
35.83 	0.057016 	4946 	0.056167
35.87 	0.059313 	4923 	0.058005
35.91 	0.061498 	4927 	0.060547
35.95 	0.055725 	4917 	0.054256
35.99 	0.060134 	4939 	0.059066
36.03 	0.060894 	4943 	0.060183
36.07 	0.058311 	4939 	0.057699
36.11 	0.061473 	4929 	0.060503
36.15 	0.057299 	4939 	0.056687
36.19 	0.061741 	4940 	0.060417
36.23 	0.058967 	4935 	0.058136
36.27 	0.064365 	4925 	0.063394
36.31 	0.061688 	4928 	0.060975
36.35 	0.057415 	4929 	0.056445
36.39 	0.058321 	4921 	0.056873
36.43 	0.062297 	4928 	0.061584
36.47 	0.053079 	4936 	0.052130
36.51 	0.055342 	4933 	0.054748
36.55 	0.053176 	4927 	0.052820
36.59 	0.060741 	4939 	0.059318
36.63 	0.054553 	4931 	0.053365
36.67 	0.059026 	4930 	0.057937
36.71 	0.056696 	4921 	0.055863
36.75 	0.055218 	4944 	0.054981
36.79 	0.061370 	4921 	0.060060
36.83 	0.069786 	4915 	0.068952
36.87 	0.055016 	4944 	0.054305
36.91 	0.058895 	4941 	0.057591
36.95 	0.060612 	4933 	0.059543
36.99 	0.064235 	4935 	0.063167
37.03 	0.058489 	4924 	0.058013
37.07 	0.059574 	4935 	0.058862
37.11 	0.059372 	4935 	0.058185
37.15 	0.056020 	4909 	0.054588
37.19 	0.059086 	4925 	0.058135
37.23 	0.059577 	4918 	0.058267
37.27 	0.062730 	4894 	0.062131
37.31 	0.052685 	4935 	0.051953
37.35 	0.060551 	4938 	0.059483
37.39 	0.055770 	4931 	0.055176
37.43 	0.059002 	4932 	0.057815
37.47 	0.052343 	4929 	0.051155
37.51 	0.053112 	4933 	0.052637
37.55 	0.052130 	4930 	0.051417
37.59 	0.051679 	4915 	0.050944
37.63 	0.058142 	4919 	0.057189
37.67 	0.057708 	4904 	0.056394
37.71 	0.058024 	4929 	0.057192
37.75 	0.057085 	4940 	0.056492
37.79 	0.054361 	4930 	0.053292
37.83 	0.058943 	4920 	0.058110
37.87 	0.056084 	4939 	0.054780
37.91 	0.050710 	4930 	0.050235
37.95 	0.059744 	4921 	0.058911
37.99 	0.056800 	4912 	0.055726
38.03 	0.057649 	4909 	0.056814
38.07 	0.056427 	4909 	0.055353
38.11 	0.059980 	4935 	0.059268
38.15 	0.056527 	4918 	0.055693
38.19 	0.063286 	4930 	0.062454
38.23 	0.059133 	4938 	0.058540
38.27 	0.070791 	4930 	0.068870
38.31 	0.062513 	4927 	0.061443
38.35 	0.072646 	4928 	0.071576
38.39 	0.071909 	4909 	0.070238
38.43 	0.071806 	4916 	0.070576
38.47 	0.082128 	4907 	0.080059
38.51 	0.084753 	4932 	0.082496
38.55 	0.083063 	4936 	0.081007
38.59 	0.076970 	4924 	0.075899
38.63 	0.080626 	4924 	0.078960
38.67 	0.075957 	4937 	0.073920
38.71 	0.072502 	4924 	0.070837
38.75 	0.063325 	4927 	0.062255
38.79 	0.073166 	4934 	0.072216
38.83 	0.062208 	4919 	0.061255
38.87 	0.061087 	4911 	0.060133
38.91 	0.053029 	4903 	0.052173
38.95 	0.056527 	4918 	0.055098
38.99 	0.052056 	4937 	0.051344
39.03 	0.049453 	4934 	0.048859
39.07 	0.048132 	4924 	0.047537
39.11 	0.049280 	4931 	0.048567
39.15 	0.050051 	4915 	0.049693
39.19 	0.053081 	4917 	0.052485
39.23 	0.045076 	4925 	0.044125
39.27 	0.047658 	4910 	0.046703
39.31 	0.053440 	4884 	0.052960
39.35 	0.046606 	4935 	0.046131
39.39 	0.046257 	4929 	0.045544
39.43 	0.047638 	4933 	0.047282
39.47 	0.048345 	4923 	0.047869
39.51 	0.044882 	4924 	0.044149
39.55 	0.040455 	4919 	0.039622
39.59 	0.043974 	4912 	0.043497
39.63 	0.043885 	4922 	0.043290
39.67 	0.047425 	4913 	0.046114
39.71 	0.045557 	4895 	0.045078
39.75 	0.049919 	4928 	0.049206
39.79 	0.048721 	4926 	0.048364
39.83 	0.047223 	4934 	0.046392
39.87 	0.042843 	4925 	0.042248
39.91 	0.044088 	4922 	0.043612
39.95 	0.043744 	4915 	0.043386
39.99 	0.048256 	4932 	0.047425
40.03 	0.047687 	4928 	0.047092
40.07 	0.052204 	4923 	0.051589
40.11 	0.042921 	4916 	0.042325
40.15 	0.044576 	4913 	0.044218
40.19 	0.045445 	4929 	0.045089
40.23 	0.043593 	4932 	0.042880
40.27 	0.046182 	4937 	0.045470
40.31 	0.042519 	4939 	0.042044
40.35 	0.043301 	4919 	0.042706
40.39 	0.047049 	4931 	0.046337
40.43 	0.046729 	4922 	0.045896
40.47 	0.046157 	4918 	0.045661
40.51 	0.045510 	4922 	0.044677
40.55 	0.044825 	4908 	0.043870
40.59 	0.040105 	4937 	0.039730
40.63 	0.040974 	4930 	0.040142
40.67 	0.044607 	4932 	0.044369
40.71 	0.041363 	4932 	0.040887
40.75 	0.042385 	4931 	0.042266
40.79 	0.045695 	4924 	0.045100
40.83 	0.045860 	4928 	0.045504
40.87 	0.044643 	4928 	0.044167
40.91 	0.044282 	4923 	0.043211
40.95 	0.042133 	4913 	0.041656
40.99 	0.040008 	4924 	0.039294
41.03 	0.043425 	4905 	0.043186
41.07 	0.040365 	4930 	0.039771
41.11 	0.042553 	4935 	0.041960
41.15 	0.043311 	4941 	0.042600
41.19 	0.039351 	4930 	0.038757
41.23 	0.040696 	4939 	0.040341
41.27 	0.041777 	4931 	0.041301
41.31 	0.036894 	4933 	0.036182
41.35 	0.047185 	4938 	0.046829
41.39 	0.043381 	4933 	0.042906
41.43 	0.047271 	4929 	0.046420
41.47 	0.036947 	4926 	0.036471
41.51 	0.038664 	4940 	0.038190
41.55 	0.041135 	4935 	0.040304
41.59 	0.043584 	4933 	0.043228
41.63 	0.041312 	4938 	0.040838
41.67 	0.037247 	4940 	0.036773
41.71 	0.043575 	4934 	0.042863
41.75 	0.039968 	4929 	0.039849
41.79 	0.042071 	4944 	0.041716
41.83 	0.040179 	4928 	0.039822
41.87 	0.039108 	4935 	0.038396
41.91 	0.036062 	4936 	0.035587
41.95 	0.038329 	4931 	0.037854
41.99 	0.045260 	4905 	0.045260
42.03 	0.037255 	4939 	0.037136
42.07 	0.043144 	4937 	0.042788
42.11 	0.043276 	4945 	0.042447
42.15 	0.036047 	4938 	0.035572
42.19 	0.039324 	4908 	0.038727
42.23 	0.041701 	4892 	0.041342
42.27 	0.035700 	4874 	0.035579
42.31 	0.038929 	4855 	0.038326
42.35 	0.037205 	4838 	0.036963
42.39 	0.041216 	4804 	0.040098
42.43 	0.033180 	4792 	0.032691
42.47 	0.042392 	4765 	0.041532
42.51 	0.033945 	4743 	0.033698
42.55 	0.034622 	4708 	0.034497
42.59 	0.040178 	4729 	0.039662
42.63 	0.033553 	4709 	0.033553
42.67 	0.043339 	4684 	0.043214
42.71 	0.037101 	4663 	0.036598
42.75 	0.035304 	4617 	0.035051
42.79 	0.036229 	4582 	0.035717
42.83 	0.044092 	4536 	0.043446
42.87 	0.038453 	4499 	0.038062
42.91 	0.037253 	4456 	0.036727
42.95 	0.034647 	4416 	0.034116
42.99 	0.039909 	4385 	0.039508
43.03 	0.039003 	4333 	0.038868
43.07 	0.037942 	4296 	0.037124
43.11 	0.039013 	4255 	0.038738
43.15 	0.041369 	4206 	0.040812
43.19 	0.038150 	4194 	0.037312
43.23 	0.038276 	4154 	0.037853
43.27 	0.036297 	4105 	0.035584
43.31 	0.034322 	4079 	0.033604
43.35 	0.045139 	4032 	0.044558
43.39 	0.036232 	4002 	0.035793
43.43 	0.038131 	3960 	0.037835
43.47 	0.040551 	3921 	0.040401
43.51 	0.032241 	3877 	0.032090
43.55 	0.040823 	2964 	0.040428
43.59 	0.041237 	1746 	0.040902
43.63 	0.055944 	1001 	0.055359
43.67 	0.033865 	502 	0.032698
43.71 	0.041841 	239 	0.041841
43.75 	0.000000 	16 	0.000000