File: Example_Data/25SC_s1_0005.002.dat
#F C:\frames\spec\25SC_s1_0005.002
#C title =s:5 frm:2 25SC_s1
#C wavelength =0.15406

#S 1  fr_average C:\frames\spec\25SC_s1_0005.002 C:\win32app\speccom\mask.axs chi 0 180 0 360 0.02
#C 2 theta =0.000000 to 180 deg
#C   q   =0.000000 to 81.568 nm^-1
#C  chi  =0.000000 to 360 deg
#C collumns:
#C  1 position (2theta or chi in degrees)
#C  2 average intensity (sum of all counts in the region divided with number of pixels)
#C  3 Number of pixels in region)
#C  4 error (sum of sqrt(intensity) for all pixels divided by number)
#N 4
#L TTh  Int  N_pix  Err
32.99 	0.065574 	61 	0.065574
33.03 	0.064702 	1391 	0.063859
33.07 	0.057561 	2050 	0.056704
33.11 	0.055448 	2579 	0.054994
33.15 	0.056352 	2999 	0.055375
33.19 	0.065530 	3342 	0.063251
33.23 	0.061311 	3523 	0.059954
33.27 	0.058402 	3630 	0.057434
33.31 	0.061749 	3660 	0.060628
33.35 	0.059285 	3694 	0.058810
33.39 	0.061679 	3729 	0.060867
33.43 	0.067535 	3761 	0.066445
33.47 	0.060821 	3798 	0.059896
33.51 	0.063172 	3815 	0.061943
33.55 	0.055946 	3843 	0.055793
33.59 	0.059021 	3880 	0.058417
33.63 	0.064557 	3919 	0.063212
33.67 	0.058675 	3954 	0.057786
33.71 	0.057107 	3975 	0.056198
33.75 	0.065016 	3999 	0.063820
33.79 	0.060381 	4041 	0.059366
33.83 	0.069136 	4050 	0.067087
33.87 	0.057164 	4111 	0.055311
33.91 	0.061461 	4149 	0.059343
33.95 	0.060990 	4181 	0.059589
33.99 	0.060476 	4200 	0.059221
34.03 	0.056079 	4244 	0.055665
34.07 	0.059044 	4268 	0.058358
34.11 	0.052766 	4302 	0.051404
34.15 	0.060956 	4331 	0.060122
34.19 	0.053874 	4362 	0.053069
34.23 	0.053039 	4393 	0.051839
34.27 	0.057666 	4422 	0.056606
34.31 	0.055182 	4458 	0.054787
34.35 	0.055531 	4484 	0.054486
34.39 	0.053088 	4502 	0.052307
34.43 	0.065653 	4539 	0.065008
34.47 	0.054443 	4592 	0.053167
34.51 	0.060139 	4606 	0.058867
34.55 	0.059014 	4643 	0.057353
34.59 	0.053262 	4675 	0.051863
34.63 	0.058811 	4710 	0.057816
34.67 	0.064754 	4741 	0.064013
34.71 	0.054973 	4766 	0.053744
34.75 	0.060316 	4808 	0.059585
34.79 	0.057836 	4824 	0.056622
34.83 	0.052653 	4862 	0.051448
34.87 	0.056902 	4868 	0.056060
34.91 	0.057149 	4882 	0.056309
34.95 	0.058896 	4890 	0.058157
34.99 	0.056361 	4897 	0.055284
35.03 	0.066154 	4943 	0.064239
35.07 	0.063360 	4940 	0.062274
35.11 	0.064888 	4947 	0.063941
35.15 	0.069678 	4937 	0.068491
35.19 	0.052813 	4942 	0.052457
35.23 	0.058443 	4945 	0.056903
35.27 	0.058205 	4948 	0.056666
35.31 	0.062639 	4933 	0.060977
35.35 	0.060704 	4942 	0.060230
35.39 	0.061072 	4945 	0.060243
35.43 	0.065275 	4933 	0.063731
35.47 	0.056378 	4931 	0.056259
35.51 	0.060495 	4926 	0.059782
35.55 	0.058847 	4945 	0.058373
35.59 	0.064307 	4945 	0.063360
35.63 	0.054016 	4943 	0.052594
35.67 	0.057062 	4942 	0.056351
35.71 	0.060968 	4937 	0.060612
35.75 	0.056378 	4931 	0.056022
35.79 	0.060827 	4932 	0.059877
35.83 	0.059038 	4946 	0.058682
35.87 	0.060532 	4923 	0.059461
35.91 	0.056627 	4927 	0.055557
35.95 	0.064470 	4917 	0.063636
35.99 	0.060741 	4939 	0.059773
36.03 	0.057455 	4943 	0.056744
36.07 	0.062158 	4939 	0.061091
36.11 	0.066545 	4929 	0.065119
36.15 	0.059729 	4939 	0.058898
36.19 	0.061943 	4940 	0.061113
36.23 	0.067882 	4935 	0.066695
36.27 	0.061320 	4925 	0.059893
36.31 	0.065747 	4928 	0.064915
36.35 	0.059647 	4929 	0.058934
36.39 	0.062792 	4921 	0.061840
36.43 	0.057427 	4928 	0.056714
36.47 	0.059360 	4936 	0.058292
36.51 	0.061018 	4933 	0.060543
36.55 	0.060889 	4927 	0.059819
36.59 	0.056287 	4939 	0.055456
36.63 	0.052525 	4931 	0.051931
36.67 	0.056795 	4930 	0.055488
36.71 	0.059338 	4921 	0.058504
36.75 	0.060073 	4944 	0.059006
36.79 	0.062589 	4921 	0.062113
36.83 	0.065717 	4915 	0.063691
36.87 	0.059466 	4944 	0.059111
36.91 	0.059907 	4941 	0.058840
36.95 	0.055139 	4933 	0.054664
36.99 	0.059169 	4935 	0.057112
37.03 	0.058489 	4924 	0.058013
37.07 	0.055319 	4935 	0.054251
37.11 	0.057143 	4935 	0.056549
37.15 	0.052964 	4909 	0.052487
37.19 	0.057259 	4925 	0.056783
37.23 	0.065270 	4918 	0.064437
37.27 	0.058439 	4894 	0.057960
37.31 	0.057548 	4935 	0.056836
37.35 	0.061563 	4938 	0.060476
37.39 	0.063273 	4931 	0.062204
37.43 	0.059813 	4932 	0.058626
37.47 	0.060661 	4929 	0.058879
37.51 	0.051085 	4933 	0.050728
37.55 	0.059838 	4930 	0.058768
37.59 	0.058189 	4915 	0.057355
37.63 	0.053466 	4919 	0.052275
37.67 	0.054241 	4904 	0.052927
37.71 	0.054575 	4929 	0.053505
37.75 	0.053644 	4940 	0.052932
37.79 	0.054361 	4930 	0.053034
37.83 	0.053049 	4920 	0.051858
37.87 	0.058311 	4939 	0.057363
37.91 	0.050913 	4930 	0.050437
37.95 	0.054664 	4921 	0.053830
37.99 	0.051303 	4912 	0.051064
38.03 	0.055408 	4909 	0.054096
38.07 	0.052557 	4909 	0.051344
38.11 	0.049443 	4935 	0.048830
38.15 	0.056934 	4918 	0.056100
38.19 	0.054564 	4930 	0.053495
38.23 	0.054475 	4938 	0.053882
38.27 	0.056592 	4930 	0.055879
38.31 	0.063122 	4927 	0.061814
38.35 	0.058442 	4928 	0.057471
38.39 	0.061723 	4909 	0.060411
38.43 	0.064890 	4916 	0.063579
38.47 	0.067862 	4907 	0.065952
38.51 	0.066099 	4932 	0.064911
38.55 	0.060575 	4936 	0.059132
38.59 	0.066206 	4924 	0.065136
38.63 	0.064175 	4924 	0.063224
38.67 	0.065222 	4937 	0.064035
38.71 	0.060926 	4924 	0.059974
38.75 	0.059671 	4927 	0.058839
38.79 	0.055533 	4934 	0.053871
38.83 	0.055296 	4919 	0.054581
38.87 	0.047241 	4911 	0.046525
38.91 	0.050581 	4903 	0.050103
38.95 	0.055104 	4918 	0.054032
38.99 	0.048613 	4937 	0.048118
39.03 	0.048439 	4934 	0.047233
39.07 	0.047116 	4924 	0.046759
39.11 	0.047049 	4931 	0.046099
39.15 	0.048423 	4915 	0.047927
39.19 	0.051454 	4917 	0.050739
39.23 	0.047107 	4925 	0.046631
39.27 	0.040733 	4910 	0.040614
39.31 	0.047912 	4884 	0.047552
39.35 	0.047214 	4935 	0.046383
39.39 	0.044634 	4929 	0.043683
39.43 	0.048247 	4933 	0.047653
39.47 	0.046313 	4923 	0.045599
39.51 	0.047116 	4924 	0.046759
39.55 	0.048587 	4919 	0.047853
39.59 	0.047231 	4912 	0.046874
39.63 	0.045104 	4922 	0.044390
39.67 	0.046815 	4913 	0.046099
39.71 	0.038202 	4895 	0.037604
39.75 	0.048701 	4928 	0.047156
39.79 	0.046082 	4926 	0.045250
39.83 	0.045805 	4934 	0.045211
39.87 	0.046497 	4925 	0.046022
39.91 	0.046729 	4922 	0.046491
39.95 	0.047406 	4915 	0.047048
39.99 	0.046837 	4932 	0.045748
40.03 	0.048093 	4928 	0.047379
40.07 	0.048141 	4923 	0.047665
40.11 	0.048617 	4916 	0.047663
40.15 	0.048036 	4913 	0.047917
40.19 	0.046257 	4929 	0.045425
40.23 	0.039943 	4932 	0.039824
40.27 	0.049625 	4937 	0.048795
40.31 	0.041709 	4939 	0.041353
40.35 	0.043098 	4919 	0.042622
40.39 	0.046035 	4931 	0.045798
40.43 	0.043072 	4922 	0.042834
40.47 	0.049410 	4918 	0.048100
40.51 	0.048964 	4922 	0.048250
40.55 	0.043806 	4908 	0.042971
40.59 	0.048815 	4937 	0.048103
40.63 	0.048884 	4930 	0.048171
40.67 	0.039943 	4932 	0.039706
40.71 	0.039943 	4932 	0.039587
40.75 	0.047049 	4931 	0.046218
40.79 	0.037571 	4924 	0.036976
40.83 	0.044034 	4928 	0.043915
40.87 	0.051542 	4928 	0.050829
40.91 	0.040219 	4923 	0.039624
40.95 	0.046000 	4913 	0.045285
40.99 	0.051381 	4924 	0.050172
41.03 	0.044444 	4905 	0.043967
41.07 	0.047262 	4930 	0.046549
41.11 	0.046606 	4935 	0.045538
41.15 	0.045537 	4941 	0.045182
41.19 	0.043408 	4930 	0.042932
41.23 	0.047176 	4939 	0.046464
41.27 	0.040560 	4931 	0.040322
41.31 	0.044395 	4933 	0.043782
41.35 	0.043945 	4938 	0.043470
41.39 	0.043584 	4933 	0.042872
41.43 	0.041388 	4929 	0.040774
41.47 	0.041007 	4926 	0.040531
41.51 	0.045951 	4940 	0.045477
41.55 	0.037893 	4935 	0.037517
41.59 	0.045408 	4933 	0.044933
41.63 	0.049615 	4938 	0.049003
41.67 	0.051417 	4940 	0.051061
41.71 	0.037698 	4934 	0.037579
41.75 	0.043214 	4929 	0.042738
41.79 	0.038633 	4944 	0.038040
41.83 	0.045049 	4928 	0.044573
41.87 	0.050456 	4935 	0.049724
41.91 	0.040113 	4936 	0.039520
41.95 	0.042385 	4931 	0.041553
41.99 	0.039755 	4905 	0.038919
42.03 	0.042519 	4939 	0.041807
42.07 	0.044561 	4937 	0.044087
42.11 	0.040445 	4945 	0.039853
42.15 	0.042527 	4938 	0.041934
42.19 	0.040750 	4908 	0.040034
42.23 	0.037204 	4892 	0.036465
42.27 	0.046368 	4874 	0.045147
42.31 	0.040165 	4855 	0.039441
42.35 	0.038652 	4838 	0.038289
42.39 	0.045587 	4804 	0.044855
42.43 	0.034432 	4792 	0.034046
42.47 	0.038825 	4765 	0.038579
42.51 	0.036053 	4743 	0.036053
42.55 	0.038445 	4708 	0.038072
42.59 	0.039543 	4729 	0.038924
42.63 	0.041622 	4709 	0.041125
42.67 	0.036507 	4684 	0.035632
42.71 	0.039674 	4663 	0.038795
42.75 	0.039203 	4617 	0.039076
42.79 	0.039939 	4582 	0.039683
42.83 	0.035494 	4536 	0.035106
42.87 	0.040453 	4499 	0.040323
42.91 	0.038600 	4456 	0.038468
42.95 	0.037364 	4416 	0.037099
42.99 	0.036032 	4385 	0.035898
43.03 	0.043157 	4333 	0.043022
43.07 	0.045391 	4296 	0.044573
43.11 	0.039013 	4255 	0.038187
43.15 	0.042558 	4206 	0.041862
43.19 	0.034096 	4194 	0.033957
43.23 	0.041887 	4154 	0.041464
43.27 	0.042875 	4105 	0.042304
43.31 	0.038245 	4079 	0.037670
43.35 	0.040179 	4032 	0.039307
43.39 	0.042229 	4002 	0.041643
43.43 	0.039646 	3960 	0.038907
43.47 	0.040296 	3921 	0.039848
43.51 	0.040753 	3877 	0.040300
43.55 	0.033738 	2964 	0.033343
43.59 	0.039519 	1746 	0.039183
43.63 	0.046953 	1001 	0.046368
43.67 	0.035857 	502 	0.034690
43.71 	0.037657 	239 	0.037657
43.75 	0.000000 	16 	0.000000