File: Example_Data/25SC_s1_0012.000.dat
#F C:\frames\spec\25SC_s1_0012.000
#C title =s:12 frm:0 25SC_s1
#C wavelength =0.15406

#S 1  fr_average C:\frames\spec\25SC_s1_0012.000 C:\win32app\speccom\mask.axs chi 0 180 0 360 0.02
#C 2 theta =0.000000 to 180 deg
#C   q   =0.000000 to 81.568 nm^-1
#C  chi  =0.000000 to 360 deg
#C collumns:
#C  1 position (2theta or chi in degrees)
#C  2 average intensity (sum of all counts in the region divided with number of pixels)
#C  3 Number of pixels in region)
#C  4 error (sum of sqrt(intensity) for all pixels divided by number)
#N 4
#L TTh  Int  N_pix  Err
32.99 	0.065574 	61 	0.055971
33.03 	0.053199 	1391 	0.052778
33.07 	0.058049 	2050 	0.056334
33.11 	0.066693 	2579 	0.064875
33.15 	0.054351 	2999 	0.052984
33.19 	0.064632 	3342 	0.063405
33.23 	0.066988 	3523 	0.065326
33.27 	0.059504 	3630 	0.058213
33.31 	0.059016 	3660 	0.057069
33.35 	0.058744 	3694 	0.057475
33.39 	0.056584 	3729 	0.055144
33.43 	0.055570 	3761 	0.054792
33.47 	0.061085 	3798 	0.059234
33.51 	0.058716 	3815 	0.058101
33.55 	0.059329 	3843 	0.058084
33.59 	0.058505 	3880 	0.057297
33.63 	0.062261 	3919 	0.061065
33.67 	0.057410 	3954 	0.056225
33.71 	0.071195 	3975 	0.069427
33.75 	0.057264 	3999 	0.056385
33.79 	0.057659 	4041 	0.057079
33.83 	0.059259 	4050 	0.058102
33.87 	0.057164 	4111 	0.056166
33.91 	0.055194 	4149 	0.053900
33.95 	0.056924 	4181 	0.055943
33.99 	0.056190 	4200 	0.055052
34.03 	0.056315 	4244 	0.055487
34.07 	0.060450 	4268 	0.059215
34.11 	0.056950 	4302 	0.055589
34.15 	0.060032 	4331 	0.059356
34.19 	0.058689 	4362 	0.057749
34.23 	0.067608 	4393 	0.066541
34.27 	0.057892 	4422 	0.055862
34.31 	0.058098 	4458 	0.057704
34.35 	0.058207 	4484 	0.057140
34.39 	0.055975 	4502 	0.055455
34.43 	0.054858 	4539 	0.054084
34.47 	0.062282 	4592 	0.061389
34.51 	0.053191 	4606 	0.052301
34.55 	0.054706 	4643 	0.053823
34.59 	0.056043 	4675 	0.055416
34.63 	0.053928 	4710 	0.052435
34.67 	0.053786 	4741 	0.052798
34.71 	0.056861 	4766 	0.055878
34.75 	0.063852 	4808 	0.062146
34.79 	0.055763 	4824 	0.055399
34.83 	0.053476 	4862 	0.052753
34.87 	0.050740 	4868 	0.049897
34.91 	0.050184 	4882 	0.049464
34.95 	0.062781 	4890 	0.062062
34.99 	0.059628 	4897 	0.058911
35.03 	0.062917 	4943 	0.062325
35.07 	0.056883 	4940 	0.055815
35.11 	0.055791 	4947 	0.055791
35.15 	0.056309 	4937 	0.055479
35.19 	0.058681 	4942 	0.057614
35.23 	0.057432 	4945 	0.056603
35.27 	0.059620 	4948 	0.059028
35.31 	0.054733 	4933 	0.053546
35.35 	0.055241 	4942 	0.054411
35.39 	0.055410 	4945 	0.054324
35.43 	0.056963 	4933 	0.056013
35.47 	0.059623 	4931 	0.058435
35.51 	0.060292 	4926 	0.059103
35.55 	0.060061 	4945 	0.058876
35.59 	0.058241 	4945 	0.057530
35.63 	0.050981 	4943 	0.049796
35.67 	0.062930 	4942 	0.061982
35.71 	0.060563 	4937 	0.059495
35.75 	0.054553 	4931 	0.053365
35.79 	0.062247 	4932 	0.060940
35.83 	0.061262 	4946 	0.060077
35.87 	0.060329 	4923 	0.059853
35.91 	0.060483 	4927 	0.060007
35.95 	0.063657 	4917 	0.063061
35.99 	0.060539 	4939 	0.059115
36.03 	0.055027 	4943 	0.053605
36.07 	0.059526 	4939 	0.058340
36.11 	0.061676 	4929 	0.060487
36.15 	0.057097 	4939 	0.056029
36.19 	0.061134 	4940 	0.060185
36.23 	0.063019 	4935 	0.061931
36.27 	0.057259 	4925 	0.056545
36.31 	0.053166 	4928 	0.052571
36.35 	0.062082 	4929 	0.060636
36.39 	0.058118 	4921 	0.057523
36.43 	0.061080 	4928 	0.060604
36.47 	0.059562 	4936 	0.058732
36.51 	0.059599 	4933 	0.058510
36.55 	0.061092 	4927 	0.059546
36.59 	0.059121 	4939 	0.057817
36.63 	0.057392 	4931 	0.055966
36.67 	0.065720 	4930 	0.064770
36.71 	0.065434 	4921 	0.064720
36.75 	0.061691 	4944 	0.059756
36.79 	0.061370 	4921 	0.060179
36.83 	0.061038 	4915 	0.060323
36.87 	0.064118 	4944 	0.063170
36.91 	0.069217 	4941 	0.067676
36.95 	0.058788 	4933 	0.058194
36.99 	0.060993 	4935 	0.060281
37.03 	0.058489 	4924 	0.058132
37.07 	0.060790 	4935 	0.059841
37.11 	0.060993 	4935 	0.060261
37.15 	0.058668 	4909 	0.057832
37.19 	0.058071 	4925 	0.057120
37.23 	0.063847 	4918 	0.063132
37.27 	0.058643 	4894 	0.057566
37.31 	0.062614 	4935 	0.062139
37.35 	0.055893 	4938 	0.054707
37.39 	0.054553 	4931 	0.053484
37.43 	0.060422 	4932 	0.058996
37.47 	0.056401 	4929 	0.055569
37.51 	0.061220 	4933 	0.060270
37.55 	0.056795 	4930 	0.055963
37.59 	0.056968 	4915 	0.056373
37.63 	0.056109 	4919 	0.055514
37.67 	0.060971 	4904 	0.060015
37.71 	0.062082 	4929 	0.060774
37.75 	0.064777 	4940 	0.064066
37.79 	0.053753 	4930 	0.053158
37.83 	0.055894 	4920 	0.054704
37.87 	0.053857 	4939 	0.052908
37.91 	0.061460 	4930 	0.060391
37.95 	0.056289 	4921 	0.055694
37.99 	0.049471 	4912 	0.048736
38.03 	0.053575 	4909 	0.052620
38.07 	0.058057 	4909 	0.056983
38.11 	0.058359 	4935 	0.057033
38.15 	0.057137 	4918 	0.055708
38.19 	0.058215 	4930 	0.057146
38.23 	0.052045 	4938 	0.051334
38.27 	0.057606 	4930 	0.057131
38.31 	0.058250 	4927 	0.057537
38.35 	0.060877 	4928 	0.059807
38.39 	0.059483 	4909 	0.058647
38.43 	0.067535 	4916 	0.065628
38.47 	0.064602 	4907 	0.063050
38.51 	0.066302 	4932 	0.065114
38.55 	0.078201 	4936 	0.076540
38.59 	0.071893 	4924 	0.070565
38.63 	0.079204 	4924 	0.077300
38.67 	0.078995 	4937 	0.077809
38.71 	0.081844 	4924 	0.080060
38.75 	0.088898 	4927 	0.085430
38.79 	0.082084 	4934 	0.080758
38.83 	0.077251 	4919 	0.075803
38.87 	0.077174 	4911 	0.075146
38.91 	0.068326 	4903 	0.067489
38.95 	0.064254 	4918 	0.063063
38.99 	0.065424 	4937 	0.063407
39.03 	0.057154 	4934 	0.055848
39.07 	0.054021 	4924 	0.052831
39.11 	0.051916 	4931 	0.051441
39.15 	0.054730 	4915 	0.054135
39.19 	0.053081 	4917 	0.052605
39.23 	0.048934 	4925 	0.048220
39.27 	0.046436 	4910 	0.045362
39.31 	0.046888 	4884 	0.046048
39.35 	0.052077 	4935 	0.051484
39.39 	0.048894 	4929 	0.048300
39.43 	0.053112 	4933 	0.051786
39.47 	0.044485 	4923 	0.043890
39.51 	0.054021 	4924 	0.053188
39.55 	0.049197 	4919 	0.048482
39.59 	0.049471 	4912 	0.048397
39.63 	0.051605 	4922 	0.051010
39.67 	0.048646 	4913 	0.048031
39.71 	0.045148 	4895 	0.044669
39.75 	0.049919 	4928 	0.049324
39.79 	0.045067 	4926 	0.044353
39.83 	0.045805 	4934 	0.044855
39.87 	0.042234 	4925 	0.041163
39.91 	0.047542 	4922 	0.047066
39.95 	0.046999 	4915 	0.046046
39.99 	0.044607 	4932 	0.043775
40.03 	0.044237 	4928 	0.043762
40.07 	0.044891 	4923 	0.044058
40.11 	0.045972 	4916 	0.045615
40.15 	0.042337 	4913 	0.041979
40.19 	0.042199 	4929 	0.041843
40.23 	0.047445 	4932 	0.046851
40.27 	0.045169 	4937 	0.044695
40.31 	0.039482 	4939 	0.039126
40.35 	0.041675 	4919 	0.041199
40.39 	0.049686 	4931 	0.049092
40.43 	0.040431 	4922 	0.040074
40.47 	0.041480 	4918 	0.040766
40.51 	0.040634 	4922 	0.039424
40.55 	0.042380 	4908 	0.042260
40.59 	0.047600 	4937 	0.047006
40.63 	0.041988 	4930 	0.041394
40.67 	0.040552 	4932 	0.039601
40.71 	0.040957 	4932 	0.040719
40.75 	0.037518 	4931 	0.037161
40.79 	0.041024 	4924 	0.040052
40.83 	0.046266 	4928 	0.045315
40.87 	0.043831 	4928 	0.043356
40.91 	0.040423 	4923 	0.040185
40.95 	0.042133 	4913 	0.041537
40.99 	0.042039 	4924 	0.041682
41.03 	0.045872 	4905 	0.045394
41.07 	0.044219 	4930 	0.043744
41.11 	0.043161 	4935 	0.042805
41.15 	0.044525 	4941 	0.043696
41.19 	0.039959 	4930 	0.039722
41.23 	0.042924 	4939 	0.042331
41.27 	0.038937 	4931 	0.038561
41.31 	0.041151 	4933 	0.040320
41.35 	0.049210 	4938 	0.048498
41.39 	0.041760 	4933 	0.041522
41.43 	0.044837 	4929 	0.044242
41.47 	0.037353 	4926 	0.036639
41.51 	0.041296 	4940 	0.040821
41.55 	0.042958 	4935 	0.041871
41.59 	0.040746 	4933 	0.040509
41.63 	0.042527 	4938 	0.042053
41.67 	0.041700 	4940 	0.041226
41.71 	0.044386 	4934 	0.043674
41.75 	0.041388 	4929 	0.040912
41.79 	0.041060 	4944 	0.040230
41.83 	0.044643 	4928 	0.044286
41.87 	0.039514 	4935 	0.039276
41.91 	0.041734 	4936 	0.041497
41.95 	0.042588 	4931 	0.042113
41.99 	0.039551 	4905 	0.039551
42.03 	0.044948 	4939 	0.044237
42.07 	0.042333 	4937 	0.041859
42.11 	0.038220 	4945 	0.037984
42.15 	0.045160 	4938 	0.044567
42.19 	0.041769 	4908 	0.041172
42.23 	0.043949 	4892 	0.043231
42.27 	0.038982 	4874 	0.038261
42.31 	0.035015 	4855 	0.034895
42.35 	0.040306 	4838 	0.040185
42.39 	0.033306 	4804 	0.033184
42.43 	0.036728 	4792 	0.036361
42.47 	0.038825 	4765 	0.038702
42.51 	0.042800 	4743 	0.042676
42.55 	0.039507 	4708 	0.039134
42.59 	0.038486 	4729 	0.038362
42.63 	0.036526 	4709 	0.036153
42.67 	0.040991 	4684 	0.040490
42.71 	0.039460 	4663 	0.039208
42.75 	0.040069 	4617 	0.039689
42.79 	0.042121 	4582 	0.041461
42.83 	0.033510 	4536 	0.033381
42.87 	0.039787 	4499 	0.038745
42.91 	0.039497 	4456 	0.038840
42.95 	0.043252 	4416 	0.043252
42.99 	0.043330 	4385 	0.042795
43.03 	0.041080 	4333 	0.040269
43.07 	0.039572 	4296 	0.038617
43.11 	0.040658 	4255 	0.039947
43.15 	0.037803 	4206 	0.037664
43.19 	0.036719 	4194 	0.036021
43.23 	0.039239 	4154 	0.038816
43.27 	0.042875 	4105 	0.042589
43.31 	0.043883 	4079 	0.043309
43.35 	0.042163 	4032 	0.041000
43.39 	0.041229 	4002 	0.040498
43.43 	0.037121 	3960 	0.036973
43.47 	0.034430 	3921 	0.034281
43.51 	0.036884 	3877 	0.036582
43.55 	0.038462 	2964 	0.037836
43.59 	0.032073 	1746 	0.032073
43.63 	0.029970 	1001 	0.029970
43.67 	0.043825 	502 	0.043825
43.71 	0.041841 	239 	0.041841
43.75 	0.062500 	16 	0.062500