File: Example_Data/25SC_s1_0022.004.dat
#F C:\frames\spec\25SC_s1_0022.004
#C title =s:22 frm:4 25SC_s1
#C wavelength =0.15406

#S 1  fr_average C:\frames\spec\25SC_s1_0022.004 C:\win32app\speccom\mask.axs chi 0 180 0 360 0.02
#C 2 theta =0.000000 to 180 deg
#C   q   =0.000000 to 81.568 nm^-1
#C  chi  =0.000000 to 360 deg
#C collumns:
#C  1 position (2theta or chi in degrees)
#C  2 average intensity (sum of all counts in the region divided with number of pixels)
#C  3 Number of pixels in region)
#C  4 error (sum of sqrt(intensity) for all pixels divided by number)
#N 4
#L TTh  Int  N_pix  Err
32.99 	0.065574 	61 	0.065574
33.03 	0.054637 	1391 	0.054216
33.07 	0.054146 	2050 	0.053003
33.11 	0.061264 	2579 	0.060356
33.15 	0.056352 	2999 	0.056157
33.19 	0.054458 	3342 	0.053757
33.23 	0.059324 	3523 	0.058161
33.27 	0.058953 	3630 	0.058469
33.31 	0.066667 	3660 	0.065066
33.35 	0.059015 	3694 	0.058539
33.39 	0.056852 	3729 	0.056223
33.43 	0.053975 	3761 	0.053352
33.47 	0.057925 	3798 	0.057154
33.51 	0.053997 	3815 	0.053383
33.55 	0.055165 	3843 	0.054251
33.59 	0.057990 	3880 	0.056480
33.63 	0.060475 	3919 	0.059727
33.67 	0.060445 	3954 	0.059087
33.71 	0.055346 	3975 	0.055199
33.75 	0.055014 	3999 	0.053988
33.79 	0.063351 	4041 	0.062626
33.83 	0.064444 	4050 	0.062564
33.87 	0.066650 	4111 	0.065487
33.91 	0.054230 	4149 	0.052677
33.95 	0.056446 	4181 	0.055885
33.99 	0.056429 	4200 	0.055313
34.03 	0.058907 	4244 	0.058217
34.07 	0.062090 	4268 	0.060443
34.11 	0.056718 	4302 	0.055628
34.15 	0.064650 	4331 	0.063568
34.19 	0.057084 	4362 	0.055663
34.23 	0.060779 	4393 	0.059712
34.27 	0.068069 	4422 	0.066612
34.31 	0.055630 	4458 	0.054054
34.35 	0.057538 	4484 	0.056156
34.39 	0.056864 	4502 	0.055562
34.43 	0.061688 	4539 	0.060655
34.47 	0.061629 	4592 	0.060608
34.51 	0.057099 	4606 	0.056061
34.55 	0.059014 	4643 	0.057857
34.59 	0.063316 	4675 	0.061415
34.63 	0.054777 	4710 	0.053658
34.67 	0.059903 	4741 	0.059388
34.71 	0.061687 	4766 	0.060458
34.75 	0.056572 	4808 	0.056085
34.79 	0.061360 	4824 	0.060267
34.83 	0.060675 	4862 	0.059470
34.87 	0.055464 	4868 	0.054622
34.91 	0.060426 	4882 	0.059226
34.95 	0.061963 	4890 	0.060765
34.99 	0.059424 	4897 	0.058348
35.03 	0.056443 	4943 	0.055614
35.07 	0.057692 	4940 	0.056862
35.11 	0.054983 	4947 	0.053325
35.15 	0.056309 	4937 	0.054748
35.19 	0.058883 	4942 	0.057816
35.23 	0.058443 	4945 	0.057495
35.27 	0.057599 	4948 	0.057007
35.31 	0.053314 	4933 	0.052008
35.35 	0.065561 	4942 	0.064494
35.39 	0.064105 	4945 	0.063394
35.43 	0.053720 	4933 	0.052889
35.47 	0.058406 	4931 	0.057693
35.51 	0.058465 	4926 	0.056900
35.55 	0.055207 	4945 	0.054141
35.59 	0.061881 	4945 	0.060539
35.63 	0.063120 	4943 	0.061934
35.67 	0.059288 	4942 	0.057984
35.71 	0.061778 	4937 	0.060216
35.75 	0.061854 	4931 	0.060903
35.79 	0.054947 	4932 	0.054235
35.83 	0.062070 	4946 	0.060412
35.87 	0.055454 	4923 	0.054502
35.91 	0.058453 	4927 	0.057859
35.95 	0.056742 	4917 	0.056027
35.99 	0.058919 	4939 	0.057970
36.03 	0.057253 	4943 	0.055693
36.07 	0.054262 	4939 	0.053550
36.11 	0.054778 	4929 	0.053708
36.15 	0.063373 	4939 	0.061950
36.19 	0.057895 	4940 	0.057302
36.23 	0.058967 	4935 	0.057384
36.27 	0.057462 	4925 	0.055896
36.31 	0.059253 	4928 	0.058778
36.35 	0.061270 	4929 	0.059963
36.39 	0.056086 	4921 	0.055729
36.43 	0.052557 	4928 	0.052319
36.47 	0.060373 	4936 	0.059423
36.51 	0.053720 	4933 	0.053245
36.55 	0.056830 	4927 	0.055522
36.59 	0.056084 	4939 	0.055373
36.63 	0.059623 	4931 	0.058296
36.67 	0.054564 	4930 	0.053495
36.71 	0.059134 	4921 	0.057468
36.75 	0.056837 	4944 	0.055533
36.79 	0.054664 	4921 	0.054307
36.83 	0.050254 	4915 	0.050016
36.87 	0.057039 	4944 	0.056091
36.91 	0.056264 	4941 	0.055908
36.95 	0.053314 	4933 	0.052364
36.99 	0.056535 	4935 	0.055348
37.03 	0.051584 	4924 	0.051108
37.07 	0.055522 	4935 	0.054909
37.11 	0.053090 	4935 	0.052141
37.15 	0.049705 	4909 	0.048989
37.19 	0.057462 	4925 	0.056391
37.23 	0.054494 	4918 	0.053541
37.27 	0.056396 	4894 	0.055199
37.31 	0.061196 	4935 	0.060127
37.35 	0.057716 	4938 	0.056411
37.39 	0.052322 	4931 	0.051728
37.43 	0.056367 	4932 	0.055891
37.47 	0.056807 	4929 	0.055618
37.51 	0.053720 	4933 	0.052770
37.55 	0.057201 	4930 	0.056488
37.59 	0.051272 	4915 	0.050299
37.63 	0.053263 	4919 	0.052548
37.67 	0.052610 	4904 	0.051535
37.71 	0.051126 	4929 	0.050294
37.75 	0.056883 	4940 	0.055934
37.79 	0.053550 	4930 	0.052599
37.83 	0.056098 	4920 	0.055621
37.87 	0.049605 	4939 	0.048775
37.91 	0.052130 	4930 	0.051298
37.95 	0.059744 	4921 	0.058435
37.99 	0.051710 	4912 	0.050756
38.03 	0.054390 	4909 	0.052719
38.07 	0.056631 	4909 	0.055437
38.11 	0.054914 	4935 	0.054083
38.15 	0.052257 	4918 	0.051304
38.19 	0.057606 	4930 	0.056181
38.23 	0.062981 	4938 	0.061557
38.27 	0.063083 	4930 	0.061657
38.31 	0.068602 	4927 	0.067532
38.35 	0.061485 	4928 	0.060297
38.39 	0.072316 	4909 	0.069890
38.43 	0.068552 	4916 	0.066745
38.47 	0.067047 	4907 	0.065495
38.51 	0.069343 	4932 	0.068037
38.55 	0.060778 	4936 	0.060185
38.59 	0.059301 	4924 	0.057874
38.63 	0.059911 	4924 	0.059316
38.67 	0.055094 	4937 	0.054738
38.71 	0.054021 	4924 	0.052693
38.75 	0.057642 	4927 	0.056690
38.79 	0.051480 	4934 	0.050411
38.83 	0.059768 	4919 	0.059054
38.87 	0.051313 	4911 	0.050598
38.91 	0.051805 	4903 	0.051088
38.95 	0.052867 	4918 	0.052152
38.99 	0.054487 	4937 	0.053419
39.03 	0.047629 	4934 	0.046916
39.07 	0.056864 	4924 	0.056151
39.11 	0.048672 	4931 	0.048078
39.15 	0.054323 	4915 	0.053728
39.19 	0.051658 	4917 	0.050566
39.23 	0.053198 	4925 	0.052603
39.27 	0.054990 	4910 	0.053916
39.31 	0.056716 	4884 	0.055636
39.35 	0.052280 	4935 	0.051449
39.39 	0.058633 	4929 	0.057781
39.43 	0.056963 	4933 	0.056370
39.47 	0.053220 	4923 	0.052248
39.51 	0.054021 	4924 	0.053069
39.55 	0.056516 	4919 	0.055682
39.59 	0.053746 	4912 	0.052792
39.63 	0.058106 	4922 	0.056916
39.67 	0.058620 	4913 	0.056593
39.71 	0.050051 	4895 	0.049094
39.75 	0.060471 	4928 	0.058925
39.79 	0.056029 	4926 	0.054721
39.83 	0.056546 	4934 	0.055834
39.87 	0.052995 	4925 	0.052638
39.91 	0.059732 	4922 	0.058185
39.95 	0.060427 	4915 	0.059116
39.99 	0.053528 	4932 	0.052578
40.03 	0.053774 	4928 	0.053180
40.07 	0.058298 	4923 	0.056989
40.11 	0.052482 	4916 	0.051171
40.15 	0.051903 	4913 	0.050472
40.19 	0.054169 	4929 	0.053932
40.23 	0.051906 	4932 	0.051193
40.27 	0.054892 	4937 	0.054417
40.31 	0.056489 	4939 	0.056133
40.35 	0.056719 	4919 	0.056362
40.39 	0.053742 	4931 	0.053266
40.43 	0.052418 	4922 	0.051684
40.47 	0.055714 	4918 	0.054999
40.51 	0.053434 	4922 	0.052224
40.55 	0.047881 	4908 	0.047046
40.59 	0.049625 	4937 	0.049151
40.63 	0.054158 	4930 	0.053445
40.67 	0.048662 	4932 	0.048305
40.71 	0.051500 	4932 	0.050550
40.75 	0.052525 	4931 	0.051456
40.79 	0.047929 	4924 	0.046838
40.83 	0.056818 	4928 	0.056343
40.87 	0.054586 	4928 	0.053278
40.91 	0.052204 	4923 	0.051728
40.95 	0.054142 	4913 	0.053307
40.99 	0.048335 	4924 	0.047383
41.03 	0.054027 	4905 	0.053071
41.07 	0.049696 	4930 	0.048983
41.11 	0.053698 	4935 	0.052986
41.15 	0.047156 	4941 	0.046682
41.19 	0.050101 	4930 	0.049032
41.23 	0.051832 	4939 	0.051121
41.27 	0.047252 	4931 	0.046896
41.31 	0.050882 	4933 	0.050169
41.35 	0.051438 	4938 	0.050133
41.39 	0.046422 	4933 	0.045710
41.43 	0.051532 	4929 	0.050700
41.47 	0.053390 	4926 	0.052796
41.51 	0.051822 	4940 	0.050972
41.55 	0.048430 	4935 	0.047717
41.59 	0.049666 	4933 	0.049191
41.63 	0.050223 	4938 	0.049392
41.67 	0.051417 	4940 	0.050212
41.71 	0.041751 	4934 	0.041395
41.75 	0.053358 	4929 	0.052645
41.79 	0.044296 	4944 	0.043467
41.83 	0.046469 	4928 	0.045994
41.87 	0.048227 	4935 	0.047277
41.91 	0.047002 	4936 	0.046507
41.95 	0.046238 	4931 	0.045763
41.99 	0.046075 	4905 	0.045598
42.03 	0.048390 	4939 	0.047797
42.07 	0.043954 	4937 	0.043123
42.11 	0.045298 	4945 	0.044588
42.15 	0.041515 	4938 	0.040922
42.19 	0.048492 	4908 	0.047776
42.23 	0.048855 	4892 	0.047618
42.27 	0.044932 	4874 	0.044692
42.31 	0.043048 	4855 	0.042566
42.35 	0.045680 	4838 	0.045196
42.39 	0.043922 	4804 	0.043312
42.43 	0.046119 	4792 	0.045752
42.47 	0.046380 	4765 	0.045396
42.51 	0.049125 	4743 	0.048137
42.55 	0.047579 	4708 	0.046459
42.59 	0.046099 	4729 	0.045603
42.63 	0.042684 	4709 	0.041938
42.67 	0.046328 	4684 	0.045828
42.71 	0.040532 	4663 	0.040406
42.75 	0.046784 	4617 	0.046022
42.79 	0.046923 	4582 	0.046411
42.83 	0.048280 	4536 	0.047506
42.87 	0.041120 	4499 	0.040860
42.91 	0.047576 	4456 	0.047313
42.95 	0.046875 	4416 	0.045946
42.99 	0.048575 	4385 	0.047907
43.03 	0.042234 	4333 	0.041693
43.07 	0.050047 	4296 	0.049228
43.11 	0.045593 	4255 	0.044630
43.15 	0.046600 	4206 	0.045904
43.19 	0.045780 	4194 	0.045640
43.23 	0.047906 	4154 	0.047201
43.27 	0.043118 	4105 	0.042262
43.31 	0.046580 	4079 	0.045718
43.35 	0.046379 	4032 	0.045943
43.39 	0.046977 	4002 	0.046684
43.43 	0.048990 	3960 	0.047954
43.47 	0.049222 	3921 	0.048475
43.51 	0.045138 	3877 	0.044685
43.55 	0.051619 	2964 	0.050829
43.59 	0.047537 	1746 	0.045860
43.63 	0.039960 	1001 	0.039375
43.67 	0.035857 	502 	0.034690
43.71 	0.041841 	239 	0.041841
43.75 	0.000000 	16 	0.000000