File: Example_Data/25SC_s1_0044.001.dat
#F C:\frames\spec\25SC_s1_0044.001
#C title =s:44 frm:1 25SC_s1
#C wavelength =0.15406

#S 1  fr_average C:\frames\spec\25SC_s1_0044.001 C:\win32app\speccom\mask.axs chi 0 180 0 360 0.02
#C 2 theta =0.000000 to 180 deg
#C   q   =0.000000 to 81.568 nm^-1
#C  chi  =0.000000 to 360 deg
#C collumns:
#C  1 position (2theta or chi in degrees)
#C  2 average intensity (sum of all counts in the region divided with number of pixels)
#C  3 Number of pixels in region)
#C  4 error (sum of sqrt(intensity) for all pixels divided by number)
#N 4
#L TTh  Int  N_pix  Err
32.99 	0.065574 	61 	0.065574
33.03 	0.061826 	1391 	0.060142
33.07 	0.065854 	2050 	0.065282
33.11 	0.061264 	2579 	0.059901
33.15 	0.065022 	2999 	0.063654
33.19 	0.055955 	3342 	0.055078
33.23 	0.059608 	3523 	0.059109
33.27 	0.053994 	3630 	0.052516
33.31 	0.058470 	3660 	0.057990
33.35 	0.059285 	3694 	0.057991
33.39 	0.066506 	3729 	0.065406
33.43 	0.056634 	3761 	0.055544
33.47 	0.056609 	3798 	0.055838
33.51 	0.058978 	3815 	0.057749
33.55 	0.060370 	3843 	0.059607
33.59 	0.058763 	3880 	0.057857
33.63 	0.057923 	3919 	0.057026
33.67 	0.054628 	3954 	0.054036
33.71 	0.060629 	3975 	0.059450
33.75 	0.056514 	3999 	0.056075
33.79 	0.057412 	4041 	0.056977
33.83 	0.056049 	4050 	0.055013
33.87 	0.061542 	4111 	0.059975
33.91 	0.058568 	4149 	0.058004
33.95 	0.060273 	4181 	0.059572
33.99 	0.053571 	4200 	0.053292
34.03 	0.060085 	4244 	0.059119
34.07 	0.059747 	4268 	0.058100
34.11 	0.059740 	4302 	0.059467
34.15 	0.061187 	4331 	0.060375
34.19 	0.048372 	4362 	0.048238
34.23 	0.062600 	4393 	0.060999
34.27 	0.058571 	4422 	0.056849
34.31 	0.059444 	4458 	0.058392
34.35 	0.065343 	4484 	0.064560
34.39 	0.061972 	4502 	0.061322
34.43 	0.053536 	4539 	0.052762
34.47 	0.052918 	4592 	0.052025
34.51 	0.057099 	4606 	0.056209
34.55 	0.061813 	4643 	0.060405
34.59 	0.055615 	4675 	0.055364
34.63 	0.057537 	4710 	0.057040
34.67 	0.058848 	4741 	0.057736
34.71 	0.060428 	4766 	0.058544
34.75 	0.053037 	4808 	0.052184
34.79 	0.057629 	4824 	0.057264
34.83 	0.055944 	4862 	0.054619
34.87 	0.049096 	4868 	0.048615
34.91 	0.058173 	4882 	0.056833
34.95 	0.057055 	4890 	0.055957
34.99 	0.058607 	4897 	0.057890
35.03 	0.058467 	4943 	0.056689
35.07 	0.055263 	4940 	0.054077
35.11 	0.059834 	4947 	0.058413
35.15 	0.063399 	4937 	0.062924
35.19 	0.049777 	4942 	0.048948
35.23 	0.058443 	4945 	0.057851
35.27 	0.058205 	4948 	0.057732
35.31 	0.055544 	4933 	0.054476
35.35 	0.056455 	4942 	0.055388
35.39 	0.064712 	4945 	0.063527
35.43 	0.058585 	4933 	0.058229
35.47 	0.059623 	4931 	0.058791
35.51 	0.058262 	4926 	0.057787
35.55 	0.052174 	4945 	0.051108
35.59 	0.056016 	4945 	0.055542
35.63 	0.059478 	4943 	0.058530
35.67 	0.057062 	4942 	0.055995
35.71 	0.055702 	4937 	0.055346
35.75 	0.055567 	4931 	0.054735
35.79 	0.050689 	4932 	0.049739
35.83 	0.053579 	4946 	0.052750
35.87 	0.062970 	4923 	0.062236
35.91 	0.056221 	4927 	0.055032
35.95 	0.057962 	4917 	0.057486
35.99 	0.056692 	4939 	0.055743
36.03 	0.055634 	4943 	0.054686
36.07 	0.056692 	4939 	0.055624
36.11 	0.058227 	4929 	0.057751
36.15 	0.057097 	4939 	0.056148
36.19 	0.056073 	4940 	0.055006
36.23 	0.054509 	4935 	0.053559
36.27 	0.059898 	4925 	0.058590
36.31 	0.050731 	4928 	0.049780
36.35 	0.055184 	4929 	0.054233
36.39 	0.057915 	4921 	0.056467
36.43 	0.062500 	4928 	0.061311
36.47 	0.055105 	4936 	0.053800
36.51 	0.060004 	4933 	0.058223
36.55 	0.062716 	4927 	0.062002
36.59 	0.057906 	4939 	0.056582
36.63 	0.052728 	4931 	0.051777
36.67 	0.055578 	4930 	0.055222
36.71 	0.060354 	4921 	0.059877
36.75 	0.052184 	4944 	0.051336
36.79 	0.052225 	4921 	0.051273
36.83 	0.056968 	4915 	0.056115
36.87 	0.052994 	4944 	0.052283
36.91 	0.052419 	4941 	0.051213
36.95 	0.056963 	4933 	0.056013
36.99 	0.052888 	4935 	0.051938
37.03 	0.048335 	4924 	0.047740
37.07 	0.057548 	4935 	0.056361
37.11 	0.059980 	4935 	0.058892
37.15 	0.057242 	4909 	0.056406
37.19 	0.056041 	4925 	0.055684
37.23 	0.062424 	4918 	0.061352
37.27 	0.058235 	4894 	0.057516
37.31 	0.051064 	4935 	0.050708
37.35 	0.060753 	4938 	0.060160
37.39 	0.053133 	4931 	0.052183
37.43 	0.049878 	4932 	0.048809
37.47 	0.059241 	4929 	0.057201
37.51 	0.060409 	4933 	0.059222
37.55 	0.054361 	4930 	0.053886
37.59 	0.055341 	4915 	0.054030
37.63 	0.056312 	4919 	0.054506
37.67 	0.061582 	4904 	0.060507
37.71 	0.057010 	4929 	0.056296
37.75 	0.052632 	4940 	0.051920
37.79 	0.055781 	4930 	0.055424
37.83 	0.056911 	4920 	0.056077
37.87 	0.057704 	4939 	0.056755
37.91 	0.057809 	4930 	0.056859
37.95 	0.050193 	4921 	0.049479
37.99 	0.054764 	4912 	0.053810
38.03 	0.057038 	4909 	0.056441
38.07 	0.061112 	4909 	0.059800
38.11 	0.060993 	4935 	0.059668
38.15 	0.055510 	4918 	0.054181
38.19 	0.056389 	4930 	0.055558
38.23 	0.061766 	4938 	0.060916
38.27 	0.070183 	4930 	0.068124
38.31 	0.065760 	4927 	0.064690
38.35 	0.071834 	4928 	0.070626
38.39 	0.070890 	4909 	0.068961
38.43 	0.076688 	4916 	0.075378
38.47 	0.074791 	4907 	0.073000
38.51 	0.071776 	4932 	0.069995
38.55 	0.080227 	4936 	0.078328
38.59 	0.064785 	4924 	0.063119
38.63 	0.069456 	4924 	0.067533
38.67 	0.058335 	4937 	0.057504
38.71 	0.069659 	4924 	0.068469
38.75 	0.057236 	4927 	0.056760
38.79 	0.054722 	4934 	0.054129
38.83 	0.055092 	4919 	0.054259
38.87 	0.053757 	4911 	0.052803
38.91 	0.049358 	4903 	0.048760
38.95 	0.046564 	4918 	0.045968
38.99 	0.045169 	4937 	0.044695
39.03 	0.048237 	4934 	0.047287
39.07 	0.043664 	4924 	0.043188
39.11 	0.044007 	4931 	0.043176
39.15 	0.053103 	4915 	0.052626
39.19 	0.048403 	4917 	0.047808
39.23 	0.047107 	4925 	0.046631
39.27 	0.042974 	4910 	0.042616
39.31 	0.041974 	4884 	0.041614
39.35 	0.042553 	4935 	0.041604
39.39 	0.047474 	4929 	0.047118
39.43 	0.046219 	4933 	0.045863
39.47 	0.043876 	4923 	0.043519
39.51 	0.046101 	4924 	0.045863
39.55 	0.050417 	4919 	0.049583
39.59 	0.045603 	4912 	0.045126
39.63 	0.045510 	4922 	0.044915
39.67 	0.047832 	4913 	0.047117
39.71 	0.049438 	4895 	0.048960
39.75 	0.047687 	4928 	0.046973
39.79 	0.051157 	4926 	0.050563
39.83 	0.049250 	4934 	0.048538
39.87 	0.041421 	4925 	0.041302
39.91 	0.045104 	4922 	0.044866
39.95 	0.042726 	4915 	0.042369
39.99 	0.047040 	4932 	0.046308
40.03 	0.041802 	4928 	0.041445
40.07 	0.043673 	4923 	0.043435
40.11 	0.047803 	4916 	0.047446
40.15 	0.036637 	4913 	0.036041
40.19 	0.048691 	4929 	0.047246
40.23 	0.040349 	4932 	0.039992
40.27 	0.043751 	4937 	0.043039
40.31 	0.044138 	4939 	0.043664
40.35 	0.040862 	4919 	0.040743
40.39 	0.040965 	4931 	0.040728
40.43 	0.041243 	4922 	0.040886
40.47 	0.044734 	4918 	0.043900
40.51 	0.049777 	4922 	0.049300
40.55 	0.039324 	4908 	0.039204
40.59 	0.038282 	4937 	0.037808
40.63 	0.041785 	4930 	0.041310
40.67 	0.037105 	4932 	0.036392
40.71 	0.037105 	4932 	0.036748
40.75 	0.039140 	4931 	0.038546
40.79 	0.042851 	4924 	0.042494
40.83 	0.040787 	4928 	0.039955
40.87 	0.040381 	4928 	0.040025
40.91 	0.038797 	4923 	0.038084
40.95 	0.045797 	4913 	0.045320
40.99 	0.044273 	4924 	0.043678
41.03 	0.041998 	4905 	0.041640
41.07 	0.039554 	4930 	0.039316
41.11 	0.038906 	4935 	0.038906
41.15 	0.036430 	4941 	0.036430
41.19 	0.039959 	4930 	0.039603
41.23 	0.040494 	4939 	0.039427
41.27 	0.040560 	4931 	0.040085
41.31 	0.036286 	4933 	0.036286
41.35 	0.039490 	4938 	0.039134
41.39 	0.041354 	4933 	0.040642
41.43 	0.036519 	4929 	0.036162
41.47 	0.042225 	4926 	0.041987
41.51 	0.035020 	4940 	0.034902
41.55 	0.040324 	4935 	0.039612
41.59 	0.036084 	4933 	0.035609
41.63 	0.042122 	4938 	0.041292
41.67 	0.043927 	4940 	0.043690
41.71 	0.038306 	4934 	0.038049
41.75 	0.038953 	4929 	0.038834
41.79 	0.041464 	4944 	0.040990
41.83 	0.041193 	4928 	0.040718
41.87 	0.038095 	4935 	0.037383
41.91 	0.039100 	4936 	0.038626
41.95 	0.038329 	4931 	0.037854
41.99 	0.042406 	4905 	0.041450
42.03 	0.037052 	4939 	0.036578
42.07 	0.034636 	4937 	0.034162
42.11 	0.035389 	4945 	0.035152
42.15 	0.040097 	4938 	0.039504
42.19 	0.043399 	4908 	0.043160
42.23 	0.040883 	4892 	0.040045
42.27 	0.043906 	4874 	0.043185
42.31 	0.036251 	4855 	0.036010
42.35 	0.038859 	4838 	0.038011
42.39 	0.037677 	4804 	0.037189
42.43 	0.040484 	4792 	0.039731
42.47 	0.040504 	4765 	0.040012
42.51 	0.037529 	4743 	0.037282
42.55 	0.037383 	4708 	0.036388
42.59 	0.036794 	4729 	0.036547
42.63 	0.037163 	4709 	0.036790
42.67 	0.038215 	4684 	0.038215
42.71 	0.035814 	4663 	0.035688
42.75 	0.039853 	4617 	0.039345
42.79 	0.033392 	4582 	0.033264
42.83 	0.040564 	4536 	0.039919
42.87 	0.032674 	4499 	0.032544
42.91 	0.042864 	4456 	0.042338
42.95 	0.037364 	4416 	0.037099
42.99 	0.034664 	4385 	0.034129
43.03 	0.031156 	4333 	0.031021
43.07 	0.033054 	4296 	0.032350
43.11 	0.042773 	4255 	0.042223
43.15 	0.040656 	4206 	0.040238
43.19 	0.039580 	4194 	0.039022
43.23 	0.037554 	4154 	0.037131
43.27 	0.037759 	4105 	0.036760
43.31 	0.034812 	4079 	0.034382
43.35 	0.035962 	4032 	0.035817
43.39 	0.041229 	4002 	0.040498
43.43 	0.034596 	3960 	0.034300
43.47 	0.041571 	3921 	0.040973
43.51 	0.035337 	3877 	0.034883
43.55 	0.029015 	2964 	0.028620
43.59 	0.034937 	1746 	0.034937
43.63 	0.037962 	1001 	0.037962
43.67 	0.037849 	502 	0.037849
43.71 	0.033473 	239 	0.033473
43.75 	0.062500 	16 	0.062500