File: Example_Data/25SC_s1_0040.000.dat
#F C:\frames\spec\25SC_s1_0040.000
#C title =s:40 frm:0 25SC_s1
#C wavelength =0.15406

#S 1  fr_average C:\frames\spec\25SC_s1_0040.000 C:\win32app\speccom\mask.axs chi 0 180 0 360 0.02
#C 2 theta =0.000000 to 180 deg
#C   q   =0.000000 to 81.568 nm^-1
#C  chi  =0.000000 to 360 deg
#C collumns:
#C  1 position (2theta or chi in degrees)
#C  2 average intensity (sum of all counts in the region divided with number of pixels)
#C  3 Number of pixels in region)
#C  4 error (sum of sqrt(intensity) for all pixels divided by number)
#N 4
#L TTh  Int  N_pix  Err
32.99 	0.114754 	61 	0.114754
33.03 	0.065421 	1391 	0.064157
33.07 	0.066829 	2050 	0.066258
33.11 	0.061652 	2579 	0.060706
33.15 	0.059353 	2999 	0.057368
33.19 	0.060144 	3342 	0.058917
33.23 	0.059041 	3523 	0.058375
33.27 	0.069146 	3630 	0.067694
33.31 	0.057104 	3660 	0.056304
33.35 	0.059827 	3694 	0.058400
33.39 	0.067042 	3729 	0.065785
33.43 	0.056102 	3761 	0.055323
33.47 	0.065298 	3798 	0.064347
33.51 	0.062123 	3815 	0.060434
33.55 	0.064012 	3843 	0.062793
33.59 	0.061082 	3880 	0.060630
33.63 	0.058688 	3919 	0.058240
33.67 	0.061457 	3954 	0.059655
33.71 	0.063145 	3975 	0.062260
33.75 	0.064516 	3999 	0.063491
33.79 	0.066815 	4041 	0.065076
33.83 	0.062469 	4050 	0.061891
33.87 	0.056677 	4111 	0.055822
33.91 	0.055676 	4149 	0.053959
33.95 	0.062425 	4181 	0.061164
33.99 	0.059286 	4200 	0.058588
34.03 	0.058435 	4244 	0.056917
34.07 	0.056935 	4268 	0.056524
34.11 	0.052534 	4302 	0.052261
34.15 	0.060725 	4331 	0.059778
34.19 	0.054791 	4362 	0.053561
34.23 	0.062600 	4393 	0.060844
34.27 	0.061737 	4422 	0.061472
34.31 	0.054733 	4458 	0.054207
34.35 	0.061552 	4484 	0.060899
34.39 	0.056197 	4502 	0.055286
34.43 	0.053977 	4539 	0.053202
34.47 	0.056838 	4592 	0.055690
34.51 	0.058185 	4606 	0.057549
34.55 	0.060521 	4643 	0.059133
34.59 	0.057754 	4675 	0.057128
34.63 	0.057325 	4710 	0.056454
34.67 	0.055474 	4741 	0.054362
34.71 	0.059589 	4766 	0.058728
34.75 	0.051581 	4808 	0.050972
34.79 	0.062396 	4824 	0.061789
34.83 	0.058001 	4862 	0.057398
34.87 	0.057518 	4868 	0.056556
34.91 	0.057558 	4882 	0.056478
34.95 	0.052761 	4890 	0.052282
34.99 	0.063712 	4897 	0.062397
35.03 	0.052195 	4943 	0.051840
35.07 	0.057085 	4940 	0.056018
35.11 	0.062260 	4947 	0.061549
35.15 	0.053271 	4937 	0.052678
35.19 	0.054027 	4942 	0.053434
35.23 	0.050961 	4945 	0.050250
35.27 	0.064875 	4948 	0.063454
35.31 	0.055747 	4933 	0.055272
35.35 	0.053420 	4942 	0.052116
35.39 	0.062285 	4945 	0.061574
35.43 	0.053314 	4933 	0.052364
35.47 	0.056378 	4931 	0.055665
35.51 	0.054405 	4926 	0.053216
35.55 	0.053387 	4945 	0.052657
35.59 	0.061274 	4945 	0.060208
35.63 	0.055027 	4943 	0.054435
35.67 	0.057467 	4942 	0.056637
35.71 	0.052461 	4937 	0.051393
35.75 	0.058609 	4931 	0.057064
35.79 	0.059408 	4932 	0.058458
35.83 	0.058229 	4946 	0.057163
35.87 	0.065001 	4923 	0.063197
35.91 	0.057236 	4927 	0.056166
35.95 	0.062233 	4917 	0.061280
35.99 	0.062563 	4939 	0.061614
36.03 	0.054825 	4943 	0.053758
36.07 	0.056084 	4939 	0.055017
36.11 	0.060661 	4929 	0.059711
36.15 	0.057097 	4939 	0.055535
36.19 	0.059919 	4940 	0.058970
36.23 	0.055319 	4935 	0.054488
36.27 	0.061117 	4925 	0.060403
36.31 	0.056412 	4928 	0.055580
36.35 	0.054372 	4929 	0.054134
36.39 	0.058931 	4921 	0.057483
36.43 	0.059253 	4928 	0.058302
36.47 	0.064627 	4936 	0.063915
36.51 	0.057166 	4933 	0.056572
36.55 	0.057439 	4927 	0.056587
36.59 	0.055882 	4939 	0.054933
36.63 	0.063882 	4931 	0.063050
36.67 	0.052941 	4930 	0.052328
36.71 	0.056899 	4921 	0.056185
36.75 	0.060073 	4944 	0.059599
36.79 	0.061979 	4921 	0.061622
36.83 	0.054120 	4915 	0.053167
36.87 	0.056634 	4944 	0.055923
36.91 	0.059502 	4941 	0.058791
36.95 	0.055544 	4933 	0.054832
36.99 	0.053293 	4935 	0.052818
37.03 	0.055849 	4924 	0.054302
37.07 	0.053901 	4935 	0.053406
37.11 	0.058156 	4935 	0.057681
37.15 	0.059075 	4909 	0.058001
37.19 	0.057056 	4925 	0.056104
37.23 	0.059170 	4918 	0.058317
37.27 	0.056600 	4894 	0.055762
37.31 	0.059574 	4935 	0.058506
37.35 	0.057918 	4938 	0.056475
37.39 	0.057189 	4931 	0.055725
37.43 	0.055556 	4932 	0.054843
37.47 	0.052140 	4929 	0.051527
37.51 	0.054936 	4933 	0.053986
37.55 	0.055984 	4930 	0.055390
37.59 	0.056968 	4915 	0.055657
37.63 	0.060785 	4919 	0.059832
37.67 	0.063214 	4904 	0.062119
37.71 	0.059241 	4929 	0.058409
37.75 	0.061538 	4940 	0.060827
37.79 	0.058824 	4930 	0.057754
37.83 	0.059350 	4920 	0.058754
37.87 	0.054667 	4939 	0.052651
37.91 	0.053955 	4930 	0.053124
37.95 	0.053444 	4921 	0.052849
37.99 	0.053746 	4912 	0.052911
38.03 	0.055612 	4909 	0.054538
38.07 	0.063760 	4909 	0.062806
38.11 	0.058156 	4935 	0.057681
38.15 	0.058357 	4918 	0.056809
38.19 	0.061866 	4930 	0.061510
38.23 	0.063994 	4938 	0.062570
38.27 	0.071400 	4930 	0.070093
38.31 	0.076111 	4927 	0.074685
38.35 	0.077719 	4928 	0.075698
38.39 	0.078631 	4909 	0.077557
38.43 	0.085028 	4916 	0.082864
38.47 	0.080293 	4907 	0.078364
38.51 	0.083131 	4932 	0.081111
38.55 	0.077796 	4936 	0.075640
38.59 	0.073314 	4924 	0.072006
38.63 	0.075345 	4924 	0.073779
38.67 	0.069070 	4937 	0.067646
38.71 	0.066816 	4924 	0.066221
38.75 	0.067587 	4927 	0.066636
38.79 	0.062424 	4934 	0.061474
38.83 	0.056312 	4919 	0.055717
38.87 	0.054164 	4911 	0.053210
38.91 	0.053437 	4903 	0.052361
38.95 	0.049004 	4918 	0.048527
38.99 	0.055297 	4937 	0.054091
39.03 	0.052493 	4934 	0.051405
39.07 	0.046507 	4924 	0.046031
39.11 	0.049686 	4931 	0.049092
39.15 	0.045168 	4915 	0.044572
39.19 	0.043116 	4917 	0.042639
39.23 	0.044061 	4925 	0.043347
39.27 	0.050306 	4910 	0.049093
39.31 	0.047093 	4884 	0.046493
39.35 	0.047822 	4935 	0.046991
39.39 	0.044431 	4929 	0.043718
39.43 	0.049463 	4933 	0.048256
39.47 	0.042454 	4923 	0.041978
39.51 	0.046507 	4924 	0.045793
39.55 	0.046961 	4919 	0.046008
39.59 	0.046417 	4912 	0.046178
39.63 	0.051808 	4922 	0.051213
39.67 	0.037859 	4913 	0.037501
39.71 	0.046782 	4895 	0.046423
39.75 	0.043628 	4928 	0.043153
39.79 	0.048112 	4926 	0.047161
39.83 	0.047223 	4934 	0.046392
39.87 	0.044670 	4925 	0.044194
39.91 	0.045510 	4922 	0.045034
39.95 	0.050254 	4915 	0.049281
39.99 	0.050689 	4932 	0.049977
40.03 	0.043019 	4928 	0.042069
40.07 	0.043266 	4923 	0.043266
40.11 	0.042921 	4916 	0.042444
40.15 	0.042947 	4913 	0.042332
40.19 	0.047880 	4929 	0.046573
40.23 	0.044201 	4932 	0.043845
40.27 	0.045574 	4937 	0.044744
40.31 	0.050415 	4939 	0.049585
40.35 	0.041269 	4919 	0.040673
40.39 	0.043805 	4931 	0.043211
40.43 	0.042259 	4922 	0.041902
40.47 	0.045547 	4918 	0.044951
40.51 	0.041447 	4922 	0.041328
40.55 	0.042176 	4908 	0.041699
40.59 	0.047600 	4937 	0.046987
40.63 	0.039757 	4930 	0.039400
40.67 	0.043593 	4932 	0.042761
40.71 	0.046431 	4932 	0.046075
40.75 	0.040560 	4931 	0.039966
40.79 	0.042445 	4924 	0.042207
40.83 	0.038555 	4928 	0.037723
40.87 	0.041599 	4928 	0.041124
40.91 	0.043266 	4923 	0.043028
40.95 	0.042744 	4913 	0.042028
40.99 	0.038790 	4924 	0.038671
41.03 	0.042610 	4905 	0.042132
41.07 	0.038945 	4930 	0.038470
41.11 	0.041135 	4935 	0.041016
41.15 	0.039668 	4941 	0.039194
41.19 	0.040568 	4930 	0.040093
41.23 	0.039684 	4939 	0.039328
41.27 	0.046035 	4931 	0.045323
41.31 	0.036894 	4933 	0.036894
41.35 	0.039490 	4938 	0.039015
41.39 	0.039530 	4933 	0.039173
41.43 	0.045445 	4929 	0.044613
41.47 	0.036338 	4926 	0.035743
41.51 	0.042510 	4940 	0.042036
41.55 	0.047214 	4935 	0.046383
41.59 	0.042773 	4933 	0.042279
41.63 	0.038275 	4938 	0.038037
41.67 	0.041700 	4940 	0.040752
41.71 	0.040332 	4934 	0.039976
41.75 	0.037939 	4929 	0.037582
41.79 	0.043689 	4944 	0.043334
41.83 	0.042208 	4928 	0.041613
41.87 	0.034245 	4935 	0.034008
41.91 	0.038898 	4936 	0.038186
41.95 	0.042182 	4931 	0.041569
41.99 	0.033435 	4905 	0.033316
42.03 	0.039279 	4939 	0.038686
42.07 	0.041523 	4937 	0.041049
42.11 	0.034783 	4945 	0.034427
42.15 	0.035439 	4938 	0.034965
42.19 	0.038916 	4908 	0.038439
42.23 	0.040883 	4892 	0.040284
42.27 	0.039598 	4874 	0.038997
42.31 	0.035427 	4855 	0.034703
42.35 	0.038239 	4838 	0.037997
42.39 	0.036012 	4804 	0.035768
42.43 	0.037145 	4792 	0.037023
42.47 	0.040294 	4765 	0.039802
42.51 	0.036053 	4743 	0.035683
42.55 	0.046092 	4708 	0.045594
42.59 	0.039543 	4729 	0.039296
42.63 	0.038649 	4709 	0.038027
42.67 	0.041418 	4684 	0.041042
42.71 	0.039460 	4663 	0.039334
42.75 	0.038337 	4617 	0.037702
42.79 	0.036447 	4582 	0.036063
42.83 	0.043210 	4536 	0.042156
42.87 	0.038675 	4499 	0.038154
42.91 	0.038600 	4456 	0.038468
42.95 	0.037817 	4416 	0.037286
42.99 	0.039681 	4385 	0.039280
43.03 	0.035772 	4333 	0.035502
43.07 	0.031890 	4296 	0.031617
43.11 	0.038073 	4255 	0.037522
43.15 	0.041132 	4206 	0.040714
43.19 	0.038388 	4194 	0.037969
43.23 	0.037795 	4154 	0.037513
43.27 	0.043362 	4105 	0.043076
43.31 	0.033342 	4079 	0.033198
43.35 	0.041419 	4032 	0.040838
43.39 	0.041729 	4002 	0.041144
43.43 	0.041667 	3960 	0.041223
43.47 	0.042081 	3921 	0.042081
43.51 	0.036368 	3877 	0.035764
43.55 	0.031039 	2964 	0.030842
43.59 	0.033219 	1746 	0.032212
43.63 	0.038961 	1001 	0.038376
43.67 	0.025896 	502 	0.025896
43.71 	0.046025 	239 	0.046025
43.75 	0.000000 	16 	0.000000