File: Example_Data/25SC_s1_0027.001.dat
#F C:\frames\spec\25SC_s1_0027.001
#C title =s:27 frm:1 25SC_s1
#C wavelength =0.15406

#S 1  fr_average C:\frames\spec\25SC_s1_0027.001 C:\win32app\speccom\mask.axs chi 0 180 0 360 0.02
#C 2 theta =0.000000 to 180 deg
#C   q   =0.000000 to 81.568 nm^-1
#C  chi  =0.000000 to 360 deg
#C collumns:
#C  1 position (2theta or chi in degrees)
#C  2 average intensity (sum of all counts in the region divided with number of pixels)
#C  3 Number of pixels in region)
#C  4 error (sum of sqrt(intensity) for all pixels divided by number)
#N 4
#L TTh  Int  N_pix  Err
32.99 	0.049180 	61 	0.049180
33.03 	0.068296 	1391 	0.067033
33.07 	0.061463 	2050 	0.060320
33.11 	0.065529 	2579 	0.064621
33.15 	0.062688 	2999 	0.061711
33.19 	0.051466 	3342 	0.051116
33.23 	0.058473 	3523 	0.058140
33.27 	0.062259 	3630 	0.060484
33.31 	0.060109 	3660 	0.058669
33.35 	0.058202 	3694 	0.056617
33.39 	0.059533 	3729 	0.057937
33.43 	0.058761 	3761 	0.057982
33.47 	0.058452 	3798 	0.056755
33.51 	0.056619 	3815 	0.054930
33.55 	0.064273 	3843 	0.062901
33.59 	0.056701 	3880 	0.055644
33.63 	0.056902 	3919 	0.056005
33.67 	0.061457 	3954 	0.060716
33.71 	0.062642 	3975 	0.061315
33.75 	0.061765 	3999 	0.060740
33.79 	0.046276 	4041 	0.045696
33.83 	0.067407 	4050 	0.065816
33.87 	0.056920 	4111 	0.056778
33.91 	0.058568 	4149 	0.056874
33.95 	0.053815 	4181 	0.053114
33.99 	0.057143 	4200 	0.056306
34.03 	0.059378 	4244 	0.058550
34.07 	0.059278 	4268 	0.058729
34.11 	0.053464 	4302 	0.053191
34.15 	0.053567 	4331 	0.052598
34.19 	0.054562 	4362 	0.054294
34.23 	0.057136 	4393 	0.056336
34.27 	0.054953 	4422 	0.053893
34.31 	0.060790 	4458 	0.059738
34.35 	0.053970 	4484 	0.052794
34.39 	0.063527 	4502 	0.062747
34.43 	0.051774 	4539 	0.051386
34.47 	0.056185 	4592 	0.055419
34.51 	0.052540 	4606 	0.051650
34.55 	0.053629 	4643 	0.052599
34.59 	0.050267 	4675 	0.049891
34.63 	0.061359 	4710 	0.059722
34.67 	0.062434 	4741 	0.060581
34.71 	0.057281 	4766 	0.056666
34.75 	0.057196 	4808 	0.056100
34.79 	0.054104 	4824 	0.053133
34.83 	0.054093 	4862 	0.053491
34.87 	0.056902 	4868 	0.056060
34.91 	0.056944 	4882 	0.055744
34.95 	0.061145 	4890 	0.060067
34.99 	0.056361 	4897 	0.055883
35.03 	0.051588 	4943 	0.050403
35.07 	0.057895 	4940 	0.056828
35.11 	0.051546 	4947 	0.050343
35.15 	0.055702 	4937 	0.055227
35.19 	0.058478 	4942 	0.057530
35.23 	0.055612 	4945 	0.054546
35.27 	0.054163 	4948 	0.052979
35.31 	0.054328 	4933 	0.053853
35.35 	0.051599 	4942 	0.050769
35.39 	0.061476 	4945 	0.060292
35.43 	0.057166 	4933 	0.055860
35.47 	0.054958 	4931 	0.053533
35.51 	0.059074 	4926 	0.058242
35.55 	0.054601 	4945 	0.053771
35.59 	0.058847 	4945 	0.057781
35.63 	0.055432 	4943 	0.054583
35.67 	0.058074 	4942 	0.057007
35.71 	0.057322 	4937 	0.056848
35.75 	0.053539 	4931 	0.052588
35.79 	0.057380 	4932 	0.056905
35.83 	0.056611 	4946 	0.055427
35.87 	0.056673 	4923 	0.055126
35.91 	0.055612 	4927 	0.054899
35.95 	0.053081 	4917 	0.051532
35.99 	0.060134 	4939 	0.059541
36.03 	0.055027 	4943 	0.054672
36.07 	0.060741 	4939 	0.059674
36.11 	0.057010 	4929 	0.056415
36.15 	0.056084 	4939 	0.054542
36.19 	0.058704 	4940 	0.057637
36.23 	0.057345 	4935 	0.056277
36.27 	0.056041 	4925 	0.055446
36.31 	0.059456 	4928 	0.058505
36.35 	0.054372 	4929 	0.053897
36.39 	0.057509 	4921 	0.057390
36.43 	0.058644 	4928 	0.057218
36.47 	0.052674 	4936 	0.052318
36.51 	0.055747 	4933 	0.054797
36.55 	0.053582 	4927 	0.053087
36.59 	0.060336 	4939 	0.059269
36.63 	0.058609 	4931 	0.056926
36.67 	0.059432 	4930 	0.058838
36.71 	0.054257 	4921 	0.053424
36.75 	0.053803 	4944 	0.053092
36.79 	0.050599 	4921 	0.050004
36.83 	0.054120 	4915 	0.053405
36.87 	0.053196 	4944 	0.052485
36.91 	0.060919 	4941 	0.059378
36.95 	0.058585 	4933 	0.057398
36.99 	0.049645 	4935 	0.049052
37.03 	0.049350 	4924 	0.048993
37.07 	0.054306 	4935 	0.053119
37.11 	0.060385 	4935 	0.059554
37.15 	0.053371 	4909 	0.052655
37.19 	0.058883 	4925 	0.057932
37.23 	0.059374 	4918 	0.058540
37.27 	0.052718 	4894 	0.052359
37.31 	0.057143 	4935 	0.056530
37.35 	0.055083 	4938 	0.054015
37.39 	0.056378 	4931 	0.054695
37.43 	0.054947 	4932 	0.053878
37.47 	0.059038 	4929 	0.058088
37.51 	0.057166 	4933 	0.055722
37.55 	0.049696 	4930 	0.048864
37.59 	0.061241 	4915 	0.059195
37.63 	0.049604 	4919 	0.048651
37.67 	0.057708 	4904 	0.057350
37.71 	0.050923 	4929 	0.050091
37.75 	0.058502 	4940 	0.056960
37.79 	0.056389 	4930 	0.055558
37.83 	0.052236 	4920 	0.051383
37.87 	0.062766 	4939 	0.061580
37.91 	0.050304 	4930 	0.049354
37.95 	0.057509 	4921 	0.056556
37.99 	0.059650 	4912 	0.058457
38.03 	0.047668 	4909 	0.047548
38.07 	0.056631 	4909 	0.055179
38.11 	0.048227 	4935 	0.047633
38.15 	0.056324 	4918 	0.055133
38.19 	0.066329 	4930 	0.064527
38.23 	0.053463 	4938 	0.052751
38.27 	0.062069 	4930 	0.061000
38.31 	0.059062 	4927 	0.057279
38.35 	0.068791 	4928 	0.067364
38.39 	0.071909 	4909 	0.070596
38.43 	0.072010 	4916 	0.070461
38.47 	0.074180 	4907 	0.072489
38.51 	0.076440 	4932 	0.075489
38.55 	0.074352 	4936 	0.072928
38.59 	0.069659 	4924 	0.068093
38.63 	0.072705 	4924 	0.071159
38.67 	0.072919 	4937 	0.071376
38.71 	0.068034 	4924 	0.066844
38.75 	0.063122 	4927 	0.062527
38.79 	0.064653 	4934 	0.063822
38.83 	0.059362 	4919 	0.058290
38.87 	0.054164 	4911 	0.053448
38.91 	0.050377 	4903 	0.049899
38.95 	0.056934 	4918 	0.056199
38.99 	0.051043 	4937 	0.050569
39.03 	0.049453 	4934 	0.048978
39.07 	0.047116 	4924 	0.046402
39.11 	0.047049 	4931 	0.046693
39.15 	0.045982 	4915 	0.044770
39.19 	0.053081 	4917 	0.052485
39.23 	0.050152 	4925 	0.049439
39.27 	0.044807 	4910 	0.044329
39.31 	0.048526 	4884 	0.048046
39.35 	0.047822 	4935 	0.047347
39.39 	0.044228 	4929 	0.043396
39.43 	0.043787 	4933 	0.043193
39.47 	0.043876 	4923 	0.043281
39.51 	0.040008 	4924 	0.039532
39.55 	0.043911 	4919 	0.043058
39.59 	0.046010 	4912 	0.045533
39.63 	0.046119 	4922 	0.045167
39.67 	0.040912 	4913 	0.040316
39.71 	0.045965 	4895 	0.045367
39.75 	0.044440 	4928 	0.043370
39.79 	0.046894 	4926 	0.046418
39.83 	0.041143 	4934 	0.041024
39.87 	0.041218 	4925 	0.040861
39.91 	0.043478 	4922 	0.043240
39.95 	0.044761 	4915 	0.044165
39.99 	0.043998 	4932 	0.043286
40.03 	0.047078 	4928 	0.046226
40.07 	0.043673 	4923 	0.043197
40.11 	0.043938 	4916 	0.043819
40.15 	0.052514 	4913 	0.052037
40.19 	0.047677 	4929 	0.047083
40.23 	0.044809 	4932 	0.043483
40.27 	0.044967 	4937 	0.044492
40.31 	0.048998 	4939 	0.048049
40.35 	0.042488 	4919 	0.042131
40.39 	0.042791 	4931 	0.041959
40.43 	0.040431 	4922 	0.039717
40.47 	0.045750 	4918 	0.045274
40.51 	0.039821 	4922 	0.039345
40.55 	0.043195 	4908 	0.042956
40.59 	0.043549 	4937 	0.043074
40.63 	0.041379 	4930 	0.041023
40.67 	0.045620 	4932 	0.045145
40.71 	0.037105 	4932 	0.036867
40.75 	0.045630 	4931 	0.045392
40.79 	0.037165 	4924 	0.037046
40.83 	0.048701 	4928 	0.048226
40.87 	0.042411 	4928 	0.041935
40.91 	0.042657 	4923 	0.042419
40.95 	0.040708 	4913 	0.040351
40.99 	0.035540 	4924 	0.035183
41.03 	0.041386 	4905 	0.040670
41.07 	0.037525 	4930 	0.036456
41.11 	0.038298 	4935 	0.038060
41.15 	0.041692 	4941 	0.041218
41.19 	0.041582 	4930 	0.041345
41.23 	0.035230 	4939 	0.034993
41.27 	0.043196 	4931 	0.042602
41.31 	0.038313 	4933 	0.038195
41.35 	0.041110 	4938 	0.041110
41.39 	0.040746 	4933 	0.040509
41.43 	0.039765 	4929 	0.039170
41.47 	0.037556 	4926 	0.037199
41.51 	0.039676 	4940 	0.039320
41.55 	0.042958 	4935 	0.042721
41.59 	0.039530 	4933 	0.039173
41.63 	0.035642 	4938 	0.035167
41.67 	0.036842 	4940 	0.036368
41.71 	0.044386 	4934 	0.043555
41.75 	0.040373 	4929 	0.040017
41.79 	0.045510 	4944 	0.044799
41.83 	0.034497 	4928 	0.034259
41.87 	0.039919 	4935 	0.039444
41.91 	0.035859 	4936 	0.035028
41.95 	0.041574 	4931 	0.041198
41.99 	0.040979 	4905 	0.040859
42.03 	0.036040 	4939 	0.035684
42.07 	0.040713 	4937 	0.040120
42.11 	0.035187 	4945 	0.035187
42.15 	0.038680 	4938 	0.038561
42.19 	0.041565 	4908 	0.041207
42.23 	0.039043 	4892 	0.038205
42.27 	0.038572 	4874 	0.038091
42.31 	0.042225 	4855 	0.041863
42.35 	0.037205 	4838 	0.036963
42.39 	0.043089 	4804 	0.042723
42.43 	0.047579 	4792 	0.047090
42.47 	0.035887 	4765 	0.035518
42.51 	0.038583 	4743 	0.038213
42.55 	0.040144 	4708 	0.039398
42.59 	0.038697 	4729 	0.038078
42.63 	0.038649 	4709 	0.038649
42.67 	0.036721 	4684 	0.036095
42.71 	0.037101 	4663 	0.036221
42.75 	0.038337 	4617 	0.037956
42.79 	0.034483 	4582 	0.034227
42.83 	0.038580 	4536 	0.037805
42.87 	0.041343 	4499 	0.040171
42.91 	0.041741 	4456 	0.041610
42.95 	0.040534 	4416 	0.040402
42.99 	0.036032 	4385 	0.035631
43.03 	0.036234 	4333 	0.035828
43.07 	0.038175 	4296 	0.037902
43.11 	0.035723 	4255 	0.034897
43.15 	0.043747 	4206 	0.043167
43.19 	0.033143 	4194 	0.032724
43.23 	0.033221 	4154 	0.033221
43.27 	0.034592 	4105 	0.033855
43.31 	0.038980 	4079 	0.038980
43.35 	0.036954 	4032 	0.036809
43.39 	0.039230 	4002 	0.039084
43.43 	0.034343 	3960 	0.034196
43.47 	0.037490 	3921 	0.037192
43.51 	0.033273 	3877 	0.032493
43.55 	0.036437 	2964 	0.036240
43.59 	0.036082 	1746 	0.035411
43.63 	0.029970 	1001 	0.029970
43.67 	0.047809 	502 	0.046642
43.71 	0.020921 	239 	0.020921
43.75 	0.062500 	16 	0.062500