File: Example_Data/25SC_s1_0052.006.dat
#F C:\frames\spec\25SC_s1_0052.006
#C title =s:52 frm:6 25SC_s1
#C wavelength =0.15406

#S 1  fr_average C:\frames\spec\25SC_s1_0052.006 C:\win32app\speccom\mask.axs chi 0 180 0 360 0.02
#C 2 theta =0.000000 to 180 deg
#C   q   =0.000000 to 81.568 nm^-1
#C  chi  =0.000000 to 360 deg
#C collumns:
#C  1 position (2theta or chi in degrees)
#C  2 average intensity (sum of all counts in the region divided with number of pixels)
#C  3 Number of pixels in region)
#C  4 error (sum of sqrt(intensity) for all pixels divided by number)
#N 4
#L TTh  Int  N_pix  Err
32.99 	0.065574 	61 	0.065574
33.03 	0.069015 	1391 	0.066488
33.07 	0.065366 	2050 	0.063366
33.11 	0.062815 	2579 	0.061906
33.15 	0.068356 	2999 	0.066794
33.19 	0.064034 	3342 	0.062456
33.23 	0.067840 	3523 	0.066510
33.27 	0.065840 	3630 	0.065033
33.31 	0.073497 	3660 	0.070936
33.35 	0.072279 	3694 	0.070694
33.39 	0.076428 	3729 	0.075014
33.43 	0.072853 	3761 	0.071140
33.47 	0.067404 	3798 	0.066324
33.51 	0.068414 	3815 	0.067032
33.55 	0.076763 	3843 	0.075391
33.59 	0.070361 	3880 	0.069153
33.63 	0.068895 	3919 	0.067699
33.67 	0.073091 	3954 	0.071905
33.71 	0.069434 	3975 	0.068402
33.75 	0.062766 	3999 	0.061447
33.79 	0.064341 	4041 	0.063302
33.83 	0.071852 	4050 	0.070405
33.87 	0.069083 	4111 	0.067658
33.91 	0.072307 	4149 	0.070166
33.95 	0.059316 	4181 	0.058195
33.99 	0.067143 	4200 	0.065888
34.03 	0.070924 	4244 	0.068991
34.07 	0.068650 	4268 	0.067415
34.11 	0.064854 	4302 	0.063900
34.15 	0.071808 	4331 	0.070591
34.19 	0.067171 	4362 	0.065962
34.23 	0.066697 	4393 	0.066164
34.27 	0.071687 	4422 	0.070097
34.31 	0.069762 	4458 	0.068448
34.35 	0.072480 	4484 	0.071174
34.39 	0.071302 	4502 	0.069480
34.43 	0.061467 	4539 	0.060177
34.47 	0.066855 	4592 	0.065197
34.51 	0.071429 	4606 	0.069902
34.55 	0.073444 	4643 	0.070900
34.59 	0.068663 	4675 	0.066909
34.63 	0.066454 	4710 	0.064962
34.67 	0.064965 	4741 	0.063853
34.71 	0.067142 	4766 	0.065790
34.75 	0.070923 	4808 	0.069461
34.79 	0.072554 	4824 	0.071218
34.83 	0.064582 	4862 	0.063478
34.87 	0.063681 	4868 	0.062478
34.91 	0.068210 	4882 	0.066510
34.95 	0.066667 	4890 	0.065329
34.99 	0.061875 	4897 	0.060798
35.03 	0.076269 	4943 	0.074097
35.07 	0.068219 	4940 	0.066677
35.11 	0.063877 	4947 	0.062575
35.15 	0.067045 	4937 	0.065364
35.19 	0.069607 	4942 	0.068185
35.23 	0.069970 	4945 	0.069022
35.27 	0.067704 	4948 	0.065928
35.31 	0.068721 	4933 	0.067533
35.35 	0.067382 	4942 	0.066315
35.39 	0.068756 	4945 	0.067335
35.43 	0.072370 	4933 	0.070213
35.47 	0.074021 	4931 	0.071764
35.51 	0.063743 	4926 	0.062554
35.55 	0.070172 	4945 	0.068257
35.59 	0.062083 	4945 	0.060780
35.63 	0.059478 	4943 	0.058648
35.67 	0.066775 	4942 	0.065115
35.71 	0.068058 	4937 	0.066851
35.75 	0.069966 	4931 	0.068639
35.79 	0.066910 	4932 	0.065603
35.83 	0.070158 	4946 	0.068736
35.87 	0.070689 	4923 	0.069142
35.91 	0.067993 	4927 	0.066923
35.95 	0.070571 	4917 	0.068665
35.99 	0.061956 	4939 	0.060770
36.03 	0.072021 	4943 	0.070599
36.07 	0.070865 	4939 	0.068848
36.11 	0.068574 	4929 	0.067742
36.15 	0.063576 	4939 	0.062390
36.19 	0.074089 	4940 	0.072192
36.23 	0.067477 	4935 	0.066033
36.27 	0.061320 	4925 	0.060249
36.31 	0.067167 	4928 	0.065979
36.35 	0.070197 	4929 	0.068533
36.39 	0.072953 	4921 	0.071524
36.43 	0.063718 	4928 	0.062529
36.47 	0.072731 	4936 	0.070892
36.51 	0.062437 	4933 	0.061724
36.55 	0.062107 	4927 	0.061631
36.59 	0.068232 	4939 	0.066572
36.63 	0.065910 	4931 	0.065078
36.67 	0.061460 	4930 	0.060035
36.71 	0.067669 	4921 	0.066122
36.75 	0.062702 	4944 	0.061498
36.79 	0.067466 	4921 	0.066276
36.83 	0.065514 	4915 	0.063706
36.87 	0.065129 	4944 	0.063807
36.91 	0.065169 	4941 	0.063746
36.95 	0.071559 	4933 	0.069540
36.99 	0.061803 	4935 	0.061091
37.03 	0.063769 	4924 	0.063056
37.07 	0.058967 	4935 	0.057780
37.11 	0.065856 	4935 	0.063957
37.15 	0.065186 	4909 	0.064590
37.19 	0.068832 	4925 	0.067405
37.23 	0.062424 	4918 	0.061709
37.27 	0.064569 	4894 	0.062873
37.31 	0.068490 	4935 	0.067541
37.35 	0.062981 	4938 	0.062131
37.39 	0.063070 	4931 	0.061625
37.43 	0.060624 	4932 	0.058962
37.47 	0.065328 	4929 	0.064020
37.51 	0.063653 	4933 	0.062584
37.55 	0.064706 	4930 	0.063636
37.59 	0.060020 	4915 	0.058948
37.63 	0.062411 	4919 	0.060466
37.67 	0.064641 	4904 	0.063088
37.71 	0.061067 	4929 	0.060711
37.75 	0.060729 	4940 	0.060017
37.79 	0.059838 	4930 	0.059481
37.83 	0.066463 	4920 	0.065273
37.87 	0.064790 	4939 	0.064079
37.91 	0.058418 	4930 	0.056992
37.95 	0.063605 	4921 	0.062157
37.99 	0.063111 	4912 	0.061799
38.03 	0.067427 	4909 	0.065279
38.07 	0.063964 	4909 	0.062890
38.11 	0.066869 	4935 	0.065188
38.15 	0.063440 	4918 	0.061992
38.19 	0.062069 	4930 	0.061099
38.23 	0.059538 	4938 	0.058451
38.27 	0.062475 	4930 	0.060692
38.31 	0.073879 	4927 	0.072690
38.35 	0.072849 	4928 	0.071185
38.39 	0.067835 	4909 	0.065786
38.43 	0.069569 	4916 	0.068000
38.47 	0.070308 	4907 	0.068995
38.51 	0.077656 	4932 	0.075855
38.55 	0.076783 	4936 	0.075477
38.59 	0.071487 	4924 	0.070396
38.63 	0.069050 	4924 	0.068217
38.67 	0.066032 	4937 	0.065201
38.71 	0.065191 	4924 	0.062812
38.75 	0.066572 	4927 	0.065601
38.79 	0.065261 	4934 	0.064312
38.83 	0.066070 	4919 	0.064999
38.87 	0.065974 	4911 	0.064066
38.91 	0.057312 	4903 	0.055998
38.95 	0.058154 	4918 	0.057300
38.99 	0.053676 	4937 	0.052964
39.03 	0.054722 	4934 	0.053654
39.07 	0.055443 	4924 	0.054372
39.11 	0.053539 	4931 	0.052826
39.15 	0.051068 	4915 	0.050472
39.19 	0.052268 	4917 	0.051533
39.23 	0.058274 	4925 	0.057442
39.27 	0.056415 	4910 	0.055461
39.31 	0.050983 	4884 	0.050503
39.35 	0.062817 	4935 	0.061986
39.39 	0.063299 	4929 	0.062823
39.43 	0.063450 	4933 	0.062500
39.47 	0.056063 	4923 	0.055587
39.51 	0.057067 	4924 	0.056354
39.55 	0.054279 	4919 	0.053565
39.59 	0.056393 	4912 	0.055796
39.63 	0.056481 	4922 	0.055767
39.67 	0.056177 	4913 	0.055224
39.71 	0.052298 	4895 	0.051102
39.75 	0.053166 	4928 	0.052215
39.79 	0.048721 	4926 	0.048364
39.83 	0.058776 	4934 	0.057945
39.87 	0.051371 	4925 	0.050657
39.91 	0.056278 	4922 	0.054830
39.95 	0.051882 	4915 	0.051048
39.99 	0.064477 	4932 	0.063408
40.03 	0.053369 	4928 	0.053131
40.07 	0.051798 	4923 	0.051560
40.11 	0.051058 	4916 	0.050700
40.15 	0.050885 	4913 	0.049932
40.19 	0.050923 	4929 	0.050329
40.23 	0.051095 	4932 	0.050501
40.27 	0.051043 	4937 	0.050213
40.31 	0.060944 	4939 	0.060232
40.35 	0.048587 	4919 	0.047873
40.39 	0.049077 	4931 	0.048840
40.43 	0.054856 	4922 	0.053785
40.47 	0.052460 	4918 	0.051507
40.51 	0.054653 	4922 	0.054177
40.55 	0.049511 	4908 	0.049014
40.59 	0.052461 	4937 	0.051868
40.63 	0.053753 	4930 	0.052564
40.67 	0.050689 	4932 	0.049620
40.71 	0.054745 	4932 	0.054032
40.75 	0.054350 	4931 	0.053400
40.79 	0.051381 	4924 	0.050291
40.83 	0.052151 	4928 	0.051438
40.87 	0.044846 	4928 	0.044608
40.91 	0.048345 	4923 	0.047274
40.95 	0.044576 	4913 	0.043960
40.99 	0.052396 	4924 	0.051445
41.03 	0.049745 	4905 	0.049029
41.07 	0.058215 	4930 	0.057264
41.11 	0.054509 	4935 	0.053678
41.15 	0.053633 	4941 	0.053040
41.19 	0.045639 	4930 	0.044926
41.23 	0.051630 	4939 	0.051155
41.27 	0.047658 	4931 	0.046945
41.31 	0.049463 	4933 	0.048988
41.35 	0.058526 	4938 	0.056984
41.39 	0.051895 	4933 	0.051302
41.43 	0.039765 	4929 	0.039170
41.47 	0.053999 	4926 	0.052810
41.51 	0.056275 	4940 	0.055564
41.55 	0.050051 	4935 	0.049576
41.59 	0.054328 	4933 	0.053378
41.63 	0.052248 	4938 	0.051299
41.67 	0.047976 	4940 	0.047501
41.71 	0.049250 	4934 	0.048300
41.75 	0.054778 	4929 	0.053827
41.79 	0.048544 	4944 	0.047833
41.83 	0.050933 	4928 	0.050101
41.87 	0.053293 	4935 	0.052462
41.91 	0.051661 	4936 	0.050831
41.95 	0.041777 	4931 	0.040807
41.99 	0.047299 	4905 	0.046940
42.03 	0.049808 	4939 	0.049333
42.07 	0.046384 	4937 	0.045791
42.11 	0.047523 	4945 	0.046812
42.15 	0.046780 	4938 	0.046187
42.19 	0.052160 	4908 	0.051444
42.23 	0.044563 	4892 	0.043824
42.27 	0.043906 	4874 	0.043546
42.31 	0.053141 	4855 	0.052297
42.35 	0.044853 	4838 	0.043744
42.39 	0.049126 	4804 	0.048394
42.43 	0.051544 	4792 	0.050811
42.47 	0.050157 	4765 	0.049789
42.51 	0.045330 	4743 	0.044712
42.55 	0.047579 	4708 	0.047330
42.59 	0.049270 	4729 	0.048755
42.63 	0.045657 	4709 	0.045160
42.67 	0.049530 	4684 	0.048780
42.71 	0.046751 	4663 	0.045872
42.75 	0.045484 	4617 	0.044850
42.79 	0.051069 	4582 	0.050174
42.83 	0.053792 	4536 	0.052759
42.87 	0.046899 	4499 	0.046118
42.91 	0.049596 	4456 	0.048654
42.95 	0.040987 	4416 	0.040722
42.99 	0.044698 	4385 	0.044142
43.03 	0.048696 	4333 	0.047885
43.07 	0.050745 	4296 	0.050063
43.11 	0.052879 	4255 	0.052741
43.15 	0.048264 	4206 	0.047568
43.19 	0.048164 	4194 	0.047326
43.23 	0.056091 	4154 	0.054398
43.27 	0.051157 	4105 	0.050420
43.31 	0.046825 	4079 	0.046251
43.35 	0.046131 	4032 	0.045526
43.39 	0.050475 	4002 	0.049889
43.43 	0.047475 	3960 	0.047179
43.47 	0.051262 	3921 	0.050515
43.51 	0.047717 	3877 	0.047113
43.55 	0.045884 	2964 	0.045489
43.59 	0.041810 	1746 	0.041810
43.63 	0.037962 	1001 	0.037962
43.67 	0.045817 	502 	0.045817
43.71 	0.046025 	239 	0.046025
43.75 	0.000000 	16 	0.000000