File: Example_Data/25SC_s1_0018.003.dat
#F C:\frames\spec\25SC_s1_0018.003
#C title =s:18 frm:3 25SC_s1
#C wavelength =0.15406

#S 1  fr_average C:\frames\spec\25SC_s1_0018.003 C:\win32app\speccom\mask.axs chi 0 180 0 360 0.02
#C 2 theta =0.000000 to 180 deg
#C   q   =0.000000 to 81.568 nm^-1
#C  chi  =0.000000 to 360 deg
#C collumns:
#C  1 position (2theta or chi in degrees)
#C  2 average intensity (sum of all counts in the region divided with number of pixels)
#C  3 Number of pixels in region)
#C  4 error (sum of sqrt(intensity) for all pixels divided by number)
#N 4
#L TTh  Int  N_pix  Err
32.99 	0.049180 	61 	0.049180
33.03 	0.063264 	1391 	0.061158
33.07 	0.066829 	2050 	0.065354
33.11 	0.055060 	2579 	0.053470
33.15 	0.051350 	2999 	0.050764
33.19 	0.054159 	3342 	0.053458
33.23 	0.062731 	3523 	0.061041
33.27 	0.066116 	3630 	0.064960
33.31 	0.059016 	3660 	0.058056
33.35 	0.063887 	3694 	0.062434
33.39 	0.061947 	3729 	0.059565
33.43 	0.066738 	3761 	0.065803
33.47 	0.058452 	3798 	0.057526
33.51 	0.065007 	3815 	0.063778
33.55 	0.062451 	3843 	0.061079
33.59 	0.057474 	3880 	0.056870
33.63 	0.062771 	3919 	0.061874
33.67 	0.061457 	3954 	0.060568
33.71 	0.063145 	3975 	0.061499
33.75 	0.057014 	3999 	0.056428
33.79 	0.061618 	4041 	0.060894
33.83 	0.049877 	4050 	0.049732
33.87 	0.058866 	4111 	0.057727
33.91 	0.057845 	4149 	0.057139
33.95 	0.064099 	4181 	0.062815
33.99 	0.064286 	4200 	0.063588
34.03 	0.061970 	4244 	0.061004
34.07 	0.056935 	4268 	0.055151
34.11 	0.056718 	4302 	0.055628
34.15 	0.057031 	4331 	0.056625
34.19 	0.061440 	4362 	0.061037
34.23 	0.063282 	4393 	0.062082
34.27 	0.063772 	4422 	0.062447
34.31 	0.058995 	4458 	0.057506
34.35 	0.057984 	4484 	0.056808
34.39 	0.055531 	4502 	0.054469
34.43 	0.060366 	4539 	0.059333
34.47 	0.056838 	4592 	0.056073
34.51 	0.057534 	4606 	0.056516
34.55 	0.057291 	4643 	0.055777
34.59 	0.062674 	4675 	0.061295
34.63 	0.056900 	4710 	0.055532
34.67 	0.065809 	4741 	0.064697
34.71 	0.063785 	4766 	0.062802
34.75 	0.060316 	4808 	0.058834
34.79 	0.064055 	4824 	0.062962
34.83 	0.062937 	4862 	0.062576
34.87 	0.057108 	4868 	0.055904
34.91 	0.062270 	4882 	0.060670
34.95 	0.059509 	4890 	0.058052
34.99 	0.058403 	4897 	0.057087
35.03 	0.063929 	4943 	0.062606
35.07 	0.052227 	4940 	0.051160
35.11 	0.058621 	4947 	0.057674
35.15 	0.065019 	4937 	0.063477
35.19 	0.060704 	4942 	0.059756
35.23 	0.058847 	4945 	0.058255
35.27 	0.056993 	4948 	0.055809
35.31 	0.058180 	4933 	0.056992
35.35 	0.066572 	4942 	0.065861
35.39 	0.060465 	4945 	0.058807
35.43 	0.060815 	4933 	0.059014
35.47 	0.059420 	4931 	0.058826
35.51 	0.057450 	4926 	0.056737
35.55 	0.063701 	4945 	0.062753
35.59 	0.057432 	4945 	0.056346
35.63 	0.058264 	4943 	0.057553
35.67 	0.055038 	4942 	0.053735
35.71 	0.062386 	4937 	0.059974
35.75 	0.059014 	4931 	0.057945
35.79 	0.057380 	4932 	0.056668
35.83 	0.055398 	4946 	0.054076
35.87 	0.054235 	4923 	0.053402
35.91 	0.062513 	4927 	0.061027
35.95 	0.060199 	4917 	0.059365
35.99 	0.055477 	4939 	0.054647
36.03 	0.053813 	4943 	0.053221
36.07 	0.050618 	4939 	0.050143
36.11 	0.057010 	4929 	0.056059
36.15 	0.058109 	4939 	0.057041
36.19 	0.061741 	4940 	0.060555
36.23 	0.061803 	4935 	0.060854
36.27 	0.055431 	4925 	0.054718
36.31 	0.061485 	4928 	0.059683
36.35 	0.059241 	4929 	0.058647
36.39 	0.063199 	4921 	0.062365
36.43 	0.056615 	4928 	0.056021
36.47 	0.052269 	4936 	0.051676
36.51 	0.049463 	4933 	0.048750
36.55 	0.056830 	4927 	0.055997
36.59 	0.052035 	4939 	0.051442
36.63 	0.056784 	4931 	0.055952
36.67 	0.048682 	4930 	0.048087
36.71 	0.054460 	4921 	0.053984
36.75 	0.051578 	4944 	0.050373
36.79 	0.054460 	4921 	0.053984
36.83 	0.057172 	4915 	0.056576
36.87 	0.056837 	4944 	0.056126
36.91 	0.056871 	4941 	0.056160
36.95 	0.051693 	4933 	0.050624
36.99 	0.057751 	4935 	0.057039
37.03 	0.054630 	4924 	0.054155
37.07 	0.056940 	4935 	0.055753
37.11 	0.055522 	4935 	0.054335
37.15 	0.051538 	4909 	0.051180
37.19 	0.057056 	4925 	0.056699
37.23 	0.056934 	4918 	0.055623
37.27 	0.061913 	4894 	0.060457
37.31 	0.057548 	4935 	0.056935
37.35 	0.057311 	4938 	0.056599
37.39 	0.049280 	4931 	0.049042
37.43 	0.056367 	4932 	0.055416
37.47 	0.051126 	4929 	0.050413
37.51 	0.052504 	4933 	0.051791
37.55 	0.055984 	4930 	0.054914
37.59 	0.051679 	4915 	0.050844
37.63 	0.057939 	4919 	0.057343
37.67 	0.054445 	4904 	0.054087
37.71 	0.060053 	4929 	0.058389
37.75 	0.054453 	4940 	0.053960
37.79 	0.055375 	4930 	0.054781
37.83 	0.054878 	4920 	0.054402
37.87 	0.051630 	4939 	0.050918
37.91 	0.044219 	4930 	0.043625
37.95 	0.054460 	4921 	0.053984
37.99 	0.053746 	4912 	0.052633
38.03 	0.050316 	4909 	0.049580
38.07 	0.054186 	4909 	0.053709
38.11 	0.057548 	4935 	0.055629
38.15 	0.054494 	4918 	0.053422
38.19 	0.051318 	4930 	0.050724
38.23 	0.060753 	4938 	0.059686
38.27 	0.048073 	4930 	0.047360
38.31 	0.057642 	4927 	0.057285
38.35 	0.058644 	4928 	0.057555
38.39 	0.061927 	4909 	0.061450
38.43 	0.061229 	4916 	0.060633
38.47 	0.064602 	4907 	0.063358
38.51 	0.065085 	4932 	0.064491
38.55 	0.058144 	4936 	0.056819
38.59 	0.056255 	4924 	0.054451
38.63 	0.053615 	4924 	0.053139
38.67 	0.057525 	4937 	0.056694
38.71 	0.055037 	4924 	0.054442
38.75 	0.053379 	4927 	0.052032
38.79 	0.058979 	4934 	0.058029
38.83 	0.051027 	4919 	0.049717
38.87 	0.054571 	4911 	0.052901
38.91 	0.055272 	4903 	0.054436
38.95 	0.049410 	4918 	0.047981
38.99 	0.050435 	4937 	0.049724
39.03 	0.050872 	4934 	0.049922
39.07 	0.048538 	4924 	0.047705
39.11 	0.053133 	4931 	0.052302
39.15 	0.050458 	4915 	0.049981
39.19 	0.049217 	4917 	0.048264
39.23 	0.049137 	4925 	0.048304
39.27 	0.044807 	4910 	0.044329
39.31 	0.049959 	4884 	0.049599
39.35 	0.044985 	4935 	0.044490
39.39 	0.046460 	4929 	0.045152
39.43 	0.048044 	4933 	0.047331
39.47 	0.047532 	4923 	0.047175
39.51 	0.045695 	4924 	0.044743
39.55 	0.047571 	4919 	0.046837
39.59 	0.045603 	4912 	0.044768
39.63 	0.050792 	4922 	0.049840
39.67 	0.046204 	4913 	0.045489
39.71 	0.044331 	4895 	0.043374
39.75 	0.046875 	4928 	0.045805
39.79 	0.049127 	4926 	0.048770
39.83 	0.049858 	4934 	0.049265
39.87 	0.043452 	4925 	0.042619
39.91 	0.051605 	4922 	0.050653
39.95 	0.053306 	4915 	0.052591
39.99 	0.046837 	4932 	0.046243
40.03 	0.049716 	4928 	0.049359
40.07 	0.049766 	4923 	0.048577
40.11 	0.049837 	4916 	0.049599
40.15 	0.045390 	4913 	0.044317
40.19 	0.047474 	4929 	0.046266
40.23 	0.050487 	4932 	0.050130
40.27 	0.048005 	4937 	0.046937
40.31 	0.050415 	4939 	0.050059
40.35 	0.052450 	4919 	0.051616
40.39 	0.048063 	4931 	0.047232
40.43 	0.049980 	4922 	0.048671
40.47 	0.039650 	4918 	0.039174
40.51 	0.049573 	4922 	0.049335
40.55 	0.047677 	4908 	0.047080
40.59 	0.048207 	4937 	0.047733
40.63 	0.044422 	4930 	0.044065
40.67 	0.043593 	4932 	0.042999
40.71 	0.047040 	4932 	0.046446
40.75 	0.051308 	4931 	0.050476
40.79 	0.047725 	4924 	0.047012
40.83 	0.042614 	4928 	0.042138
40.87 	0.041193 	4928 	0.040599
40.91 	0.047126 	4923 	0.046293
40.95 	0.044372 	4913 	0.044014
40.99 	0.044273 	4924 	0.043916
41.03 	0.049541 	4905 	0.048944
41.07 	0.041379 	4930 	0.041142
41.11 	0.044782 	4935 	0.043714
41.15 	0.046549 	4941 	0.045127
41.19 	0.046045 	4930 	0.046045
41.23 	0.050010 	4939 	0.049417
41.27 	0.045021 	4931 	0.044071
41.31 	0.049260 	4933 	0.048785
41.35 	0.046173 	4938 	0.045461
41.39 	0.040746 	4933 	0.040390
41.43 	0.049706 	4929 	0.049230
41.47 	0.043037 	4926 	0.042442
41.51 	0.040081 	4940 	0.039725
41.55 	0.042756 	4935 	0.042162
41.59 	0.049260 	4933 	0.048647
41.63 	0.042730 	4938 	0.042137
41.67 	0.044332 	4940 	0.044213
41.71 	0.045805 	4934 	0.044835
41.75 	0.041591 	4929 	0.041353
41.79 	0.043892 	4944 	0.043181
41.83 	0.044643 	4928 	0.044405
41.87 	0.039311 	4935 	0.038955
41.91 	0.041734 	4936 	0.041378
41.95 	0.046238 	4931 	0.045525
41.99 	0.042406 	4905 	0.041450
42.03 	0.042924 	4939 	0.042449
42.07 	0.037270 	4937 	0.036439
42.11 	0.042872 	4945 	0.042516
42.15 	0.035844 	4938 	0.035489
42.19 	0.041565 	4908 	0.040849
42.23 	0.041905 	4892 	0.041306
42.27 	0.041034 	4874 	0.040674
42.31 	0.042430 	4855 	0.042069
42.35 	0.039066 	4838 	0.038460
42.39 	0.043505 	4804 	0.042774
42.43 	0.042154 	4792 	0.041787
42.47 	0.043861 	4765 	0.043370
42.51 	0.039637 	4743 	0.039020
42.55 	0.039720 	4708 	0.039346
42.59 	0.047156 	4729 	0.046784
42.63 	0.043321 	4709 	0.042699
42.67 	0.043553 	4684 	0.042927
42.71 	0.041175 	4663 	0.040924
42.75 	0.044834 	4617 	0.043798
42.79 	0.042558 	4582 	0.042174
42.83 	0.040785 	4536 	0.040527
42.87 	0.049122 	4499 	0.047820
42.91 	0.039946 	4456 	0.039683
42.95 	0.049819 	4416 	0.049288
42.99 	0.041961 	4385 	0.041293
43.03 	0.042003 	4333 	0.041462
43.07 	0.042598 	4296 	0.041780
43.11 	0.039013 	4255 	0.038738
43.15 	0.039230 	4206 	0.038812
43.19 	0.039342 	4194 	0.038783
43.23 	0.047183 	4154 	0.046055
43.27 	0.043605 	4105 	0.043177
43.31 	0.041187 	4079 	0.040612
43.35 	0.038938 	4032 	0.038357
43.39 	0.044978 	4002 	0.044392
43.43 	0.034343 	3960 	0.033752
43.47 	0.044631 	3921 	0.044034
43.51 	0.039464 	3877 	0.039010
43.55 	0.048246 	2964 	0.047850
43.59 	0.042383 	1746 	0.042047
43.63 	0.037962 	1001 	0.037962
43.67 	0.043825 	502 	0.043825
43.71 	0.050209 	239 	0.050209
43.75 	0.000000 	16 	0.000000