File: Example_Data/25SC_s1_0031.000.dat
#F C:\frames\spec\25SC_s1_0031.000
#C title =s:31 frm:0 25SC_s1
#C wavelength =0.15406

#S 1  fr_average C:\frames\spec\25SC_s1_0031.000 C:\win32app\speccom\mask.axs chi 0 180 0 360 0.02
#C 2 theta =0.000000 to 180 deg
#C   q   =0.000000 to 81.568 nm^-1
#C  chi  =0.000000 to 360 deg
#C collumns:
#C  1 position (2theta or chi in degrees)
#C  2 average intensity (sum of all counts in the region divided with number of pixels)
#C  3 Number of pixels in region)
#C  4 error (sum of sqrt(intensity) for all pixels divided by number)
#N 4
#L TTh  Int  N_pix  Err
32.99 	0.081967 	61 	0.072364
33.03 	0.061826 	1391 	0.060984
33.07 	0.067805 	2050 	0.065805
33.11 	0.054285 	2579 	0.053149
33.15 	0.059020 	2999 	0.058434
33.19 	0.063136 	3342 	0.061909
33.23 	0.059324 	3523 	0.058659
33.27 	0.066667 	3630 	0.066021
33.31 	0.059016 	3660 	0.057870
33.35 	0.057390 	3694 	0.056439
33.39 	0.061947 	3729 	0.061319
33.43 	0.063281 	3761 	0.062321
33.47 	0.069247 	3798 	0.068167
33.51 	0.053473 	3815 	0.053012
33.55 	0.063232 	3843 	0.062292
33.59 	0.062887 	3880 	0.061830
33.63 	0.060985 	3919 	0.059640
33.67 	0.060445 	3954 	0.059704
33.71 	0.067170 	3975 	0.065991
33.75 	0.066517 	3999 	0.064466
33.79 	0.058896 	4041 	0.058027
33.83 	0.063951 	4050 	0.063083
33.87 	0.060569 	4111 	0.059572
33.91 	0.060255 	4149 	0.059408
33.95 	0.058598 	4181 	0.057478
33.99 	0.067381 	4200 	0.066823
34.03 	0.065269 	4244 	0.064026
34.07 	0.064667 	4268 	0.063158
34.11 	0.063226 	4302 	0.061320
34.15 	0.045948 	4331 	0.045001
34.19 	0.061669 	4362 	0.060729
34.23 	0.061234 	4393 	0.060434
34.27 	0.056309 	4422 	0.055515
34.31 	0.057201 	4458 	0.055887
34.35 	0.059768 	4484 	0.058854
34.39 	0.059529 	4502 	0.058358
34.43 	0.062789 	4539 	0.061499
34.47 	0.052918 	4592 	0.051642
34.51 	0.051889 	4606 	0.051126
34.55 	0.057075 	4643 	0.056424
34.59 	0.064385 	4675 	0.063759
34.63 	0.055839 	4710 	0.055092
34.67 	0.061169 	4741 	0.060551
34.71 	0.060428 	4766 	0.059568
34.75 	0.058860 	4808 	0.057398
34.79 	0.058458 	4824 	0.057851
34.83 	0.058001 	4862 	0.057017
34.87 	0.060394 	4868 	0.059672
34.91 	0.059402 	4882 	0.058922
34.95 	0.057055 	4890 	0.056336
34.99 	0.059628 	4897 	0.058432
35.03 	0.056848 	4943 	0.056256
35.07 	0.058907 	4940 	0.058195
35.11 	0.058824 	4947 	0.057995
35.15 	0.059753 	4937 	0.058804
35.19 	0.057467 	4942 	0.056617
35.23 	0.058038 	4945 	0.057209
35.27 	0.059620 	4948 	0.058791
35.31 	0.055544 	4933 	0.054832
35.35 	0.059895 	4942 	0.058828
35.39 	0.058443 	4945 	0.057258
35.43 	0.057977 	4933 	0.056770
35.47 	0.059826 	4931 	0.058519
35.51 	0.055826 	4926 	0.054142
35.55 	0.061476 	4945 	0.060765
35.59 	0.053792 	4945 	0.052844
35.63 	0.055027 	4943 	0.054079
35.67 	0.055443 	4942 	0.054594
35.71 	0.060968 	4937 	0.060256
35.75 	0.057798 	4931 	0.056610
35.79 	0.057178 	4932 	0.056584
35.83 	0.059038 	4946 	0.057853
35.87 	0.054438 	4923 	0.053367
35.91 	0.062310 	4927 	0.061359
35.95 	0.054301 	4917 	0.053467
35.99 	0.057704 	4939 	0.056854
36.03 	0.059276 	4943 	0.057972
36.07 	0.051832 	4939 	0.051002
36.11 	0.054169 	4929 	0.053575
36.15 	0.057906 	4939 	0.057432
36.19 	0.061943 	4940 	0.060283
36.23 	0.059574 	4935 	0.058031
36.27 	0.059695 	4925 	0.058368
36.31 	0.057833 	4928 	0.057238
36.35 	0.054372 	4929 	0.053897
36.39 	0.054460 	4921 	0.053627
36.43 	0.054992 	4928 	0.054041
36.47 	0.056929 	4936 	0.056335
36.51 	0.059193 	4933 	0.058124
36.55 	0.058453 	4927 	0.057621
36.59 	0.058109 	4939 	0.057397
36.63 	0.057189 	4931 	0.056219
36.67 	0.056592 	4930 	0.055166
36.71 	0.058525 	4921 	0.057334
36.75 	0.058252 	4944 	0.056831
36.79 	0.052022 	4921 	0.051189
36.83 	0.058393 	4915 	0.057062
36.87 	0.059871 	4944 	0.058804
36.91 	0.058288 	4941 	0.057221
36.95 	0.057369 	4933 	0.056538
36.99 	0.049240 	4935 	0.048528
37.03 	0.054224 	4924 	0.053391
37.07 	0.056738 	4935 	0.055432
37.11 	0.061196 	4935 	0.059139
37.15 	0.053168 	4909 	0.051974
37.19 	0.054416 	4925 	0.053465
37.23 	0.055510 	4918 	0.054796
37.27 	0.061708 	4894 	0.060751
37.31 	0.060385 	4935 	0.059673
37.35 	0.054273 	4938 	0.053443
37.39 	0.058203 	4931 	0.057490
37.43 	0.057786 	4932 	0.056479
37.47 	0.048489 	4929 	0.047775
37.51 	0.057977 	4933 	0.057007
37.55 	0.055375 	4930 	0.054068
37.59 	0.051679 	4915 	0.050725
37.63 	0.054076 	4919 	0.053004
37.67 	0.056281 	4904 	0.055564
37.71 	0.058835 	4929 	0.057885
37.75 	0.055870 	4940 	0.054803
37.79 	0.054970 	4930 	0.053643
37.83 	0.054065 	4920 	0.053232
37.87 	0.056894 	4939 	0.055945
37.91 	0.058012 	4930 	0.056943
37.95 	0.049990 	4921 	0.049276
37.99 	0.056189 	4912 	0.055096
38.03 	0.058464 	4909 	0.057271
38.07 	0.058260 	4909 	0.057664
38.11 	0.058561 	4935 	0.057730
38.15 	0.057340 	4918 	0.056268
38.19 	0.059838 	4930 	0.059125
38.23 	0.059133 	4938 	0.058184
38.27 	0.061460 	4930 	0.060391
38.31 	0.062310 	4927 	0.061953
38.35 	0.070414 	4928 	0.069443
38.39 	0.070890 	4909 	0.069100
38.43 	0.076892 	4916 	0.075104
38.47 	0.076625 	4907 	0.074934
38.51 	0.076237 	4932 	0.073980
38.55 	0.081848 	4936 	0.079711
38.59 	0.082047 	4924 	0.079886
38.63 	0.074127 	4924 	0.072323
38.67 	0.077172 	4937 	0.075274
38.71 	0.066816 	4924 	0.065487
38.75 	0.071240 	4927 	0.070408
38.79 	0.061613 	4934 	0.060664
38.83 	0.063224 	4919 	0.062272
38.87 	0.058644 	4911 	0.057690
38.91 	0.052009 	4903 	0.051292
38.95 	0.049004 	4918 	0.048646
38.99 	0.054689 	4937 	0.054214
39.03 	0.051074 	4934 	0.049749
39.07 	0.052803 	4924 	0.051970
39.11 	0.051308 	4931 	0.050476
39.15 	0.050458 	4915 	0.050100
39.19 	0.049217 	4917 	0.048145
39.23 	0.043046 	4925 	0.042689
39.27 	0.048676 	4910 	0.047960
39.31 	0.047502 	4884 	0.046662
39.35 	0.044377 	4935 	0.044021
39.39 	0.048083 	4929 	0.047251
39.43 	0.042976 	4933 	0.042857
39.47 	0.042657 	4923 	0.041943
39.51 	0.047116 	4924 	0.046521
39.55 	0.045741 	4919 	0.044312
39.59 	0.044992 	4912 	0.044634
39.63 	0.052011 	4922 	0.051059
39.67 	0.038673 	4913 	0.038315
39.71 	0.039632 	4895 	0.039513
39.75 	0.048498 	4928 	0.047547
39.79 	0.041007 	4926 	0.040650
39.83 	0.049858 	4934 	0.049027
39.87 	0.047107 	4925 	0.046512
39.91 	0.045713 	4922 	0.045594
39.95 	0.045168 	4915 	0.044810
39.99 	0.047851 	4932 	0.047138
40.03 	0.038555 	4928 	0.038080
40.07 	0.049766 	4923 	0.048695
40.11 	0.048617 	4916 	0.048021
40.15 	0.044576 	4913 	0.043979
40.19 	0.045040 	4929 	0.043732
40.23 	0.046837 	4932 	0.046124
40.27 	0.049018 	4937 	0.047950
40.31 	0.041101 	4939 	0.040746
40.35 	0.041269 	4919 	0.040911
40.39 	0.043399 	4931 	0.042924
40.43 	0.042259 	4922 	0.041783
40.47 	0.045954 	4918 	0.045219
40.51 	0.042056 	4922 	0.041342
40.55 	0.040954 	4908 	0.040476
40.59 	0.044359 	4937 	0.043766
40.63 	0.042394 	4930 	0.041799
40.67 	0.042579 	4932 	0.042460
40.71 	0.044809 	4932 	0.043740
40.75 	0.048063 	4931 	0.047944
40.79 	0.038790 	4924 	0.038195
40.83 	0.040179 	4928 	0.039822
40.87 	0.045455 	4928 	0.045098
40.91 	0.038797 	4923 	0.038203
40.95 	0.047018 	4913 	0.046541
40.99 	0.041430 	4924 	0.040102
41.03 	0.038532 	4905 	0.038293
41.07 	0.042799 	4930 	0.042324
41.11 	0.041945 	4935 	0.041233
41.15 	0.039061 	4941 	0.038705
41.19 	0.043611 	4930 	0.043254
41.23 	0.039684 	4939 	0.039447
41.27 	0.046238 	4931 	0.045763
41.31 	0.039530 	4933 	0.038580
41.35 	0.037870 	4938 	0.037227
41.39 	0.037503 	4933 	0.037265
41.43 	0.037127 	4929 	0.036890
41.47 	0.042022 	4926 	0.040952
41.51 	0.037247 	4940 	0.036891
41.55 	0.039919 	4935 	0.039563
41.59 	0.040341 	4933 	0.039866
41.63 	0.037465 	4938 	0.036753
41.67 	0.044130 	4940 	0.043280
41.71 	0.035874 	4934 	0.035399
41.75 	0.041793 	4929 	0.041556
41.79 	0.033374 	4944 	0.033018
41.83 	0.040381 	4928 	0.040025
41.87 	0.037690 	4935 	0.037334
41.91 	0.043558 	4936 	0.042964
41.95 	0.040965 	4931 	0.040609
41.99 	0.040979 	4905 	0.040262
42.03 	0.042316 	4939 	0.042079
42.07 	0.036459 	4937 	0.036341
42.11 	0.040849 	4945 	0.040376
42.15 	0.043337 	4938 	0.043337
42.19 	0.037897 	4908 	0.037659
42.23 	0.033933 	4892 	0.033574
42.27 	0.038777 	4874 	0.038176
42.31 	0.036045 	4855 	0.035563
42.35 	0.035552 	4838 	0.035189
42.39 	0.035387 	4804 	0.035021
42.43 	0.040484 	4792 	0.039506
42.47 	0.035047 	4765 	0.034433
42.51 	0.038372 	4743 	0.037878
42.55 	0.045667 	4708 	0.044920
42.59 	0.039332 	4729 	0.039084
42.63 	0.039711 	4709 	0.039462
42.67 	0.043126 	4684 	0.042375
42.71 	0.041175 	4663 	0.040421
42.75 	0.037687 	4617 	0.037433
42.79 	0.040812 	4582 	0.040173
42.83 	0.044533 	4536 	0.043499
42.87 	0.041565 	4499 	0.040914
42.91 	0.040844 	4456 	0.040449
42.95 	0.042120 	4416 	0.041987
42.99 	0.034892 	4385 	0.034892
43.03 	0.041080 	4333 	0.040404
43.07 	0.038641 	4296 	0.038232
43.11 	0.043243 	4255 	0.042555
43.15 	0.037803 	4206 	0.037362
43.19 	0.037196 	4194 	0.036777
43.23 	0.036591 	4154 	0.036168
43.27 	0.038733 	4105 	0.038591
43.31 	0.036038 	4079 	0.035607
43.35 	0.035714 	4032 	0.035278
43.39 	0.038731 	4002 	0.037852
43.43 	0.035354 	3960 	0.035058
43.47 	0.036725 	3921 	0.035829
43.51 	0.031726 	3877 	0.031121
43.55 	0.037112 	2964 	0.036914
43.59 	0.036082 	1746 	0.035411
43.63 	0.052947 	1001 	0.052362
43.67 	0.031873 	502 	0.031873
43.71 	0.029289 	239 	0.029289
43.75 	0.187500 	16 	0.187500