File: Example_Data/25SC_s1_0008.003.dat
#F C:\frames\spec\25SC_s1_0008.003
#C title =s:8 frm:3 25SC_s1
#C wavelength =0.15406

#S 1  fr_average C:\frames\spec\25SC_s1_0008.003 C:\win32app\speccom\mask.axs chi 0 180 0 360 0.02
#C 2 theta =0.000000 to 180 deg
#C   q   =0.000000 to 81.568 nm^-1
#C  chi  =0.000000 to 360 deg
#C collumns:
#C  1 position (2theta or chi in degrees)
#C  2 average intensity (sum of all counts in the region divided with number of pixels)
#C  3 Number of pixels in region)
#C  4 error (sum of sqrt(intensity) for all pixels divided by number)
#N 4
#L TTh  Int  N_pix  Err
32.99 	0.065574 	61 	0.055971
33.03 	0.065421 	1391 	0.064157
33.07 	0.066341 	2050 	0.065484
33.11 	0.066693 	2579 	0.065784
33.15 	0.068356 	2999 	0.067379
33.19 	0.061341 	3342 	0.060114
33.23 	0.055634 	3523 	0.055136
33.27 	0.067218 	3630 	0.066411
33.31 	0.057923 	3660 	0.057123
33.35 	0.063617 	3694 	0.062507
33.39 	0.058461 	3729 	0.057361
33.43 	0.058495 	3761 	0.057405
33.47 	0.063718 	3798 	0.062021
33.51 	0.056881 	3815 	0.055652
33.55 	0.054645 	3843 	0.053730
33.59 	0.065722 	3880 	0.064212
33.63 	0.058433 	3919 	0.057387
33.67 	0.058675 	3954 	0.057638
33.71 	0.053082 	3975 	0.052198
33.75 	0.059265 	3999 	0.058239
33.79 	0.061371 	4041 	0.060042
33.83 	0.060741 	4050 	0.060018
33.87 	0.055218 	4111 	0.054363
33.91 	0.064835 	4149 	0.063141
33.95 	0.057403 	4181 	0.055721
33.99 	0.060476 	4200 	0.059639
34.03 	0.060556 	4244 	0.059452
34.07 	0.062090 	4268 	0.061266
34.11 	0.062529 	4302 	0.061167
34.15 	0.061418 	4331 	0.060741
34.19 	0.055479 	4362 	0.054405
34.23 	0.065786 	4393 	0.064320
34.27 	0.067616 	4422 	0.066159
34.31 	0.055406 	4458 	0.055275
34.35 	0.058653 	4484 	0.058130
34.39 	0.057308 	4502 	0.056397
34.43 	0.053977 	4539 	0.053589
34.47 	0.056838 	4592 	0.056200
34.51 	0.058185 	4606 	0.057168
34.55 	0.067629 	4643 	0.066746
34.59 	0.060321 	4675 	0.059193
34.63 	0.056900 	4710 	0.056278
34.67 	0.061379 	4741 	0.060020
34.71 	0.061687 	4766 	0.060581
34.75 	0.063644 	4808 	0.062913
34.79 	0.059080 	4824 	0.058351
34.83 	0.058412 	4862 	0.057810
34.87 	0.063270 	4868 	0.062288
34.91 	0.058378 	4882 	0.057298
34.95 	0.060327 	4890 	0.059249
34.99 	0.060854 	4897 	0.059777
35.03 	0.058669 	4943 	0.058076
35.07 	0.062753 	4940 	0.061686
35.11 	0.055994 	4947 	0.055264
35.15 	0.059348 	4937 	0.058636
35.19 	0.057264 	4942 	0.055842
35.23 	0.059858 	4945 	0.058536
35.27 	0.064268 	4948 	0.062828
35.31 	0.058585 	4933 	0.057873
35.35 	0.062525 	4942 	0.061221
35.39 	0.061881 	4945 	0.060933
35.43 	0.060409 	4933 	0.059934
35.47 	0.063070 	4931 	0.062120
35.51 	0.050751 	4926 	0.049800
35.55 	0.062083 	4945 	0.060543
35.59 	0.061881 	4945 	0.061288
35.63 	0.061906 	4943 	0.060820
35.67 	0.064751 	4942 	0.063921
35.71 	0.060766 	4937 	0.059816
35.75 	0.056175 	4931 	0.055106
35.79 	0.061436 	4932 	0.060248
35.83 	0.057622 	4946 	0.056675
35.87 	0.057892 	4923 	0.057178
35.91 	0.057033 	4927 	0.055725
35.95 	0.059386 	4917 	0.058194
35.99 	0.052237 	4939 	0.051288
36.03 	0.059680 	4943 	0.058495
36.07 	0.057299 	4939 	0.056469
36.11 	0.066545 	4929 	0.065000
36.15 	0.059121 	4939 	0.057916
36.19 	0.061336 	4940 	0.060387
36.23 	0.065248 	4935 	0.064061
36.27 	0.063553 	4925 	0.062463
36.31 	0.060065 	4928 	0.059114
36.35 	0.061473 	4929 	0.060760
36.39 	0.053038 	4921 	0.052205
36.43 	0.061891 	4928 	0.060683
36.47 	0.061791 	4936 	0.060229
36.51 	0.059396 	4933 	0.058446
36.55 	0.060889 	4927 	0.060176
36.59 	0.060741 	4939 	0.059318
36.63 	0.059623 	4931 	0.058653
36.67 	0.056998 	4930 	0.056760
36.71 	0.060557 	4921 	0.059604
36.75 	0.059871 	4944 	0.058567
36.79 	0.054867 	4921 	0.053677
36.83 	0.055341 	4915 	0.054249
36.87 	0.067961 	4944 	0.066539
36.91 	0.056669 	4941 	0.056076
36.95 	0.053112 	4933 	0.052755
36.99 	0.058156 	4935 	0.057206
37.03 	0.068440 	4924 	0.067112
37.07 	0.058156 	4935 	0.057444
37.11 	0.048835 	4935 	0.048123
37.15 	0.051131 	4909 	0.050534
37.19 	0.050355 	4925 	0.048571
37.23 	0.054087 	4918 	0.052757
37.27 	0.053126 	4894 	0.052408
37.31 	0.055319 	4935 	0.054825
37.35 	0.055488 	4938 	0.053946
37.39 	0.052525 	4931 	0.051456
37.43 	0.053933 	4932 	0.052865
37.47 	0.056807 	4929 	0.055975
37.51 	0.057977 	4933 	0.057502
37.55 	0.060446 	4930 	0.059733
37.59 	0.055748 	4915 	0.055390
37.63 	0.054076 	4919 	0.053242
37.67 	0.057504 	4904 	0.055951
37.71 	0.056807 	4929 	0.055618
37.75 	0.052632 	4940 	0.051802
37.79 	0.063489 	4930 	0.062400
37.83 	0.050610 	4920 	0.050134
37.87 	0.053655 	4939 	0.053299
37.91 	0.052333 	4930 	0.051026
37.95 	0.056899 	4921 	0.056066
37.99 	0.054764 	4912 	0.054168
38.03 	0.055205 	4909 	0.054727
38.07 	0.054797 	4909 	0.054201
38.11 	0.047822 	4935 	0.047090
38.15 	0.051240 	4918 	0.050168
38.19 	0.059838 	4930 	0.058887
38.23 	0.054881 	4938 	0.053813
38.27 	0.052941 	4930 	0.052090
38.31 	0.060686 	4927 	0.059953
38.35 	0.054586 	4928 	0.053754
38.39 	0.061316 	4909 	0.060103
38.43 	0.062042 	4916 	0.060255
38.47 	0.061545 	4907 	0.059873
38.51 	0.065085 	4932 	0.064135
38.55 	0.066045 	4936 	0.064503
38.59 	0.063160 	4924 	0.062089
38.63 	0.057271 	4924 	0.056676
38.67 	0.061171 	4937 	0.060103
38.71 	0.051990 	4924 	0.051039
38.75 	0.057642 	4927 	0.057404
38.79 	0.053709 	4934 	0.052759
38.83 	0.055499 	4919 	0.054904
38.87 	0.058033 	4911 	0.056721
38.91 	0.050377 	4903 	0.049660
38.95 	0.055307 	4918 	0.055069
38.99 	0.048815 	4937 	0.047985
39.03 	0.048034 	4934 	0.047322
39.07 	0.051584 	4924 	0.049741
39.11 	0.052930 	4931 	0.051980
39.15 	0.056765 	4915 	0.056169
39.19 	0.049014 	4917 	0.048537
39.23 	0.050964 	4925 	0.050132
39.27 	0.051120 	4910 	0.049927
39.31 	0.049959 	4884 	0.049000
39.35 	0.048430 	4935 	0.047480
39.39 	0.051735 	4929 	0.051259
39.43 	0.051490 	4933 	0.050659
39.47 	0.045094 	4923 	0.044618
39.51 	0.044882 	4924 	0.044406
39.55 	0.047977 	4919 	0.047620
39.59 	0.047638 	4912 	0.047042
39.63 	0.047338 	4922 	0.046624
39.67 	0.050682 	4913 	0.050086
39.71 	0.053524 	4895 	0.053165
39.75 	0.048701 	4928 	0.047750
39.79 	0.051360 	4926 	0.051003
39.83 	0.049250 	4934 	0.048162
39.87 	0.048528 	4925 	0.047914
39.91 	0.048354 	4922 	0.047878
39.95 	0.051475 	4915 	0.050879
39.99 	0.045418 	4932 	0.044705
40.03 	0.052354 	4928 	0.051997
40.07 	0.049766 	4923 	0.049052
40.11 	0.052278 	4916 	0.051563
40.15 	0.046407 	4913 	0.045573
40.19 	0.045648 	4929 	0.045411
40.23 	0.042376 	4932 	0.041782
40.27 	0.049625 	4937 	0.049507
40.31 	0.047580 	4939 	0.046394
40.35 	0.051433 	4919 	0.050719
40.39 	0.040560 	4931 	0.039966
40.43 	0.050386 	4922 	0.049315
40.47 	0.046564 	4918 	0.046068
40.51 	0.047135 	4922 	0.046421
40.55 	0.048900 	4908 	0.048542
40.59 	0.049220 	4937 	0.049102
40.63 	0.050101 	4930 	0.049032
40.67 	0.045620 	4932 	0.044789
40.71 	0.041768 	4932 	0.041293
40.75 	0.045427 	4931 	0.044952
40.79 	0.047522 	4924 	0.047165
40.83 	0.049716 	4928 	0.049122
40.87 	0.047890 	4928 	0.047295
40.91 	0.047126 	4923 	0.046412
40.95 	0.044576 	4913 	0.043741
40.99 	0.049350 	4924 	0.048755
41.03 	0.053211 	4905 	0.051897
41.07 	0.052130 	4930 	0.051160
41.11 	0.047822 	4935 	0.047466
41.15 	0.044728 	4941 	0.044135
41.19 	0.043205 	4930 	0.042373
41.23 	0.049200 	4939 	0.048133
41.27 	0.044413 	4931 	0.043819
41.31 	0.044395 	4933 	0.043188
41.35 	0.046375 	4938 	0.046138
41.39 	0.048855 	4933 	0.048142
41.43 	0.047880 	4929 	0.047523
41.47 	0.043443 	4926 	0.043086
41.51 	0.045951 	4940 	0.045359
41.55 	0.048024 	4935 	0.047550
41.59 	0.049666 	4933 	0.048834
41.63 	0.046375 	4938 	0.045881
41.67 	0.046356 	4940 	0.045507
41.71 	0.043575 	4934 	0.042744
41.75 	0.050923 	4929 	0.050329
41.79 	0.046319 	4944 	0.045963
41.83 	0.047281 	4928 	0.046805
41.87 	0.046403 	4935 	0.045928
41.91 	0.047002 	4936 	0.046408
41.95 	0.043805 	4931 	0.042854
41.99 	0.045260 	4905 	0.044543
42.03 	0.040089 	4939 	0.039733
42.07 	0.043346 	4937 	0.042516
42.11 	0.044894 	4945 	0.044164
42.15 	0.043337 	4938 	0.043100
42.19 	0.042176 	4908 	0.041699
42.23 	0.040270 	4892 	0.040150
42.27 	0.044727 	4874 	0.044106
42.31 	0.043872 	4855 	0.042887
42.35 	0.043200 	4838 	0.042332
42.39 	0.044963 	4804 	0.044597
42.43 	0.048205 	4792 	0.047227
42.47 	0.040714 	4765 	0.040591
42.51 	0.044065 	4743 	0.043571
42.55 	0.043118 	4708 	0.042869
42.59 	0.042504 	4729 	0.042008
42.63 	0.044595 	4709 	0.043849
42.67 	0.051025 	4684 	0.049899
42.71 	0.045250 	4663 	0.044999
42.75 	0.044401 	4617 	0.043640
42.79 	0.040157 	4582 	0.039518
42.83 	0.043651 	4536 	0.043263
42.87 	0.043343 	4499 	0.043083
42.91 	0.035233 	4456 	0.034839
42.95 	0.048687 	4416 	0.047073
42.99 	0.043786 	4385 	0.043251
43.03 	0.036464 	4333 	0.036329
43.07 	0.043063 	4296 	0.042109
43.11 	0.042538 	4255 	0.041414
43.15 	0.043747 	4206 	0.043468
43.19 	0.044111 	4194 	0.043552
43.23 	0.042128 	4154 	0.041705
43.27 	0.043605 	4105 	0.042749
43.31 	0.045109 	4079 	0.044678
43.35 	0.042411 	4032 	0.041830
43.39 	0.046227 	4002 	0.045788
43.43 	0.042677 	3960 	0.042381
43.47 	0.045397 	3921 	0.044500
43.51 	0.039721 	3877 	0.039268
43.55 	0.036100 	2964 	0.035902
43.59 	0.036082 	1746 	0.036082
43.63 	0.042957 	1001 	0.042372
43.67 	0.047809 	502 	0.047809
43.71 	0.037657 	239 	0.037657
43.75 	0.000000 	16 	0.000000