File: Example_Data/25SC_s1_0011.002.dat
#F C:\frames\spec\25SC_s1_0011.002
#C title =s:11 frm:2 25SC_s1
#C wavelength =0.15406

#S 1  fr_average C:\frames\spec\25SC_s1_0011.002 C:\win32app\speccom\mask.axs chi 0 180 0 360 0.02
#C 2 theta =0.000000 to 180 deg
#C   q   =0.000000 to 81.568 nm^-1
#C  chi  =0.000000 to 360 deg
#C collumns:
#C  1 position (2theta or chi in degrees)
#C  2 average intensity (sum of all counts in the region divided with number of pixels)
#C  3 Number of pixels in region)
#C  4 error (sum of sqrt(intensity) for all pixels divided by number)
#N 4
#L TTh  Int  N_pix  Err
32.99 	0.032787 	61 	0.032787
33.03 	0.050324 	1391 	0.049060
33.07 	0.056585 	2050 	0.055681
33.11 	0.070182 	2579 	0.068819
33.15 	0.056352 	2999 	0.055766
33.19 	0.053262 	3342 	0.052560
33.23 	0.054783 	3523 	0.053951
33.27 	0.063636 	3630 	0.061700
33.31 	0.065574 	3660 	0.064293
33.35 	0.060910 	3694 	0.060275
33.39 	0.056047 	3729 	0.054790
33.43 	0.062217 	3761 	0.061413
33.47 	0.053186 	3798 	0.052260
33.51 	0.059240 	3815 	0.057833
33.55 	0.050481 	3843 	0.049199
33.59 	0.057216 	3880 	0.056311
33.63 	0.060730 	3919 	0.060132
33.67 	0.058169 	3954 	0.057132
33.71 	0.059874 	3975 	0.058524
33.75 	0.056514 	3999 	0.055635
33.79 	0.064588 	4041 	0.062475
33.83 	0.058025 	4050 	0.057735
33.87 	0.057407 	4111 	0.056267
33.91 	0.058086 	4149 	0.056510
33.95 	0.055728 	4181 	0.054607
33.99 	0.059762 	4200 	0.058646
34.03 	0.061734 	4244 	0.059802
34.07 	0.060450 	4268 	0.058528
34.11 	0.055788 	4302 	0.054971
34.15 	0.057031 	4331 	0.055949
34.19 	0.064420 	4362 	0.062674
34.23 	0.055998 	4393 	0.055465
34.27 	0.057214 	4422 	0.056419
34.31 	0.056079 	4458 	0.055291
34.35 	0.057538 	4484 	0.056754
34.39 	0.051533 	4502 	0.050882
34.43 	0.055078 	4539 	0.054304
34.47 	0.063371 	4592 	0.062095
34.51 	0.056882 	4606 	0.056501
34.55 	0.052121 	4643 	0.051112
34.59 	0.053690 	4675 	0.052813
34.63 	0.059873 	4710 	0.059126
34.67 	0.055052 	4741 	0.054557
34.71 	0.052245 	4766 	0.051508
34.75 	0.062812 	4808 	0.061350
34.79 	0.063226 	4824 	0.061141
34.83 	0.061086 	4862 	0.060122
34.87 	0.053615 	4868 	0.053134
34.91 	0.052847 	4882 	0.052007
34.95 	0.059100 	4890 	0.058102
34.99 	0.063100 	4897 	0.061784
35.03 	0.054420 	4943 	0.053946
35.07 	0.064575 	4940 	0.063389
35.11 	0.061451 	4947 	0.060011
35.15 	0.057525 	4937 	0.056932
35.19 	0.058276 	4942 	0.056261
35.23 	0.057634 	4945 	0.057141
35.27 	0.059822 	4948 	0.058993
35.31 	0.065680 	4933 	0.063899
35.35 	0.056050 	4942 	0.055576
35.39 	0.053387 	4945 	0.052539
35.43 	0.057166 	4933 	0.055741
35.47 	0.061448 	4931 	0.060498
35.51 	0.064149 	4926 	0.063436
35.55 	0.062487 	4945 	0.061777
35.59 	0.056016 	4945 	0.054950
35.63 	0.057860 	4943 	0.057030
35.67 	0.062323 	4942 	0.061375
35.71 	0.059550 	4937 	0.058482
35.75 	0.055567 	4931 	0.054854
35.79 	0.057178 	4932 	0.056089
35.83 	0.062879 	4946 	0.062168
35.87 	0.059517 	4923 	0.058922
35.91 	0.061092 	4927 	0.059883
35.95 	0.057352 	4917 	0.056280
35.99 	0.061348 	4939 	0.060637
36.03 	0.055027 	4943 	0.054178
36.07 	0.057097 	4939 	0.056266
36.11 	0.056604 	4929 	0.055415
36.15 	0.066005 	4939 	0.065412
36.19 	0.060931 	4940 	0.059963
36.23 	0.059574 	4935 	0.059100
36.27 	0.061117 	4925 	0.060522
36.31 	0.059456 	4928 	0.058248
36.35 	0.055386 	4929 	0.054911
36.39 	0.055883 	4921 	0.055288
36.43 	0.062094 	4928 	0.060549
36.47 	0.058955 	4936 	0.058005
36.51 	0.060815 	4933 	0.060102
36.55 	0.057642 	4927 	0.056215
36.59 	0.059729 	4939 	0.058424
36.63 	0.060028 	4931 	0.059078
36.67 	0.063083 	4930 	0.062133
36.71 	0.061979 	4921 	0.060670
36.75 	0.066141 	4944 	0.064956
36.79 	0.053648 	4921 	0.051962
36.83 	0.054323 	4915 	0.053132
36.87 	0.058859 	4944 	0.057674
36.91 	0.057478 	4941 	0.056411
36.95 	0.055342 	4933 	0.054510
36.99 	0.057143 	4935 	0.055600
37.03 	0.059504 	4924 	0.057938
37.07 	0.060993 	4935 	0.059312
37.11 	0.053901 	4935 	0.052358
37.15 	0.056427 	4909 	0.054995
37.19 	0.059086 	4925 	0.057540
37.23 	0.051240 	4918 	0.050764
37.27 	0.064569 	4894 	0.062854
37.31 	0.054509 	4935 	0.053559
37.35 	0.056906 	4938 	0.055700
37.39 	0.053539 	4931 	0.052826
37.43 	0.050892 	4932 	0.049467
37.47 	0.057821 	4929 	0.056514
37.51 	0.060612 	4933 	0.059662
37.55 	0.053955 	4930 	0.053005
37.59 	0.052289 	4915 	0.051216
37.63 	0.053669 	4919 	0.052221
37.67 	0.053222 	4904 	0.052744
37.71 	0.054981 	4929 	0.054129
37.75 	0.060526 	4940 	0.059222
37.79 	0.056795 	4930 	0.055250
37.83 	0.052033 	4920 	0.050793
37.87 	0.061753 	4939 	0.060904
37.91 	0.050913 	4930 	0.049962
37.95 	0.055680 	4921 	0.054232
37.99 	0.055375 	4912 	0.054898
38.03 	0.057038 	4909 	0.056322
38.07 	0.048686 	4909 	0.048328
38.11 	0.054711 	4935 	0.053643
38.15 	0.049817 	4918 	0.049460
38.19 	0.047262 	4930 	0.046430
38.23 	0.054881 	4938 	0.053338
38.27 	0.056187 	4930 	0.054998
38.31 	0.057845 	4927 	0.056160
38.35 	0.056006 	4928 	0.055174
38.39 	0.052964 	4909 	0.052367
38.43 	0.058584 	4916 	0.057512
38.47 	0.061952 	4907 	0.060997
38.51 	0.068735 	4932 	0.066953
38.55 	0.062804 	4936 	0.061854
38.59 	0.062957 	4924 	0.061748
38.63 	0.054630 	4924 	0.053798
38.67 	0.058943 	4937 	0.057875
38.71 	0.062145 	4924 	0.060717
38.75 	0.065151 	4927 	0.063606
38.79 	0.066883 	4934 	0.064726
38.83 	0.056516 	4919 	0.055206
38.87 	0.052942 	4911 	0.052227
38.91 	0.058128 	4903 	0.057291
38.95 	0.050224 	4918 	0.049747
38.99 	0.048613 	4937 	0.048019
39.03 	0.051277 	4934 	0.050802
39.07 	0.049553 	4924 	0.049434
39.11 	0.049280 	4931 	0.048805
39.15 	0.047813 	4915 	0.046979
39.19 	0.051251 	4917 	0.050159
39.23 	0.044061 	4925 	0.043447
39.27 	0.049287 	4910 	0.048571
39.31 	0.041155 	4884 	0.040795
39.35 	0.044174 	4935 	0.043581
39.39 	0.047068 	4929 	0.046593
39.43 	0.042976 	4933 	0.042620
39.47 	0.043876 	4923 	0.043638
39.51 	0.048335 	4924 	0.048216
39.55 	0.040455 	4919 	0.040098
39.59 	0.043770 	4912 	0.043293
39.63 	0.044697 	4922 	0.043983
39.67 	0.047629 	4913 	0.047033
39.71 	0.043922 	4895 	0.043324
39.75 	0.046672 	4928 	0.045602
39.79 	0.048721 	4926 	0.048602
39.83 	0.044183 	4934 	0.043590
39.87 	0.044873 	4925 	0.044397
39.91 	0.045916 	4922 	0.045083
39.95 	0.050254 	4915 	0.049182
39.99 	0.045823 	4932 	0.045229
40.03 	0.039367 	4928 	0.039129
40.07 	0.050579 	4923 	0.050222
40.11 	0.042921 	4916 	0.042325
40.15 	0.043965 	4913 	0.043250
40.19 	0.044228 	4929 	0.043515
40.23 	0.038727 	4932 	0.038014
40.27 	0.041321 	4937 	0.041083
40.31 	0.043126 	4939 	0.042652
40.35 	0.042895 	4919 	0.042419
40.39 	0.041168 	4931 	0.040931
40.43 	0.050183 	4922 	0.049112
40.47 	0.047784 	4918 	0.046831
40.51 	0.038805 	4922 	0.038448
40.55 	0.044010 	4908 	0.043532
40.59 	0.048613 	4937 	0.048019
40.63 	0.047465 	4930 	0.046870
40.67 	0.040957 	4932 	0.040719
40.71 	0.043796 	4932 	0.042964
40.75 	0.041371 	4931 	0.040777
40.79 	0.044679 	4924 	0.044441
40.83 	0.044440 	4928 	0.043846
40.87 	0.042005 	4928 	0.041411
40.91 	0.039204 	4923 	0.038728
40.95 	0.043761 	4913 	0.043404
40.99 	0.040617 	4924 	0.039785
41.03 	0.041794 	4905 	0.040839
41.07 	0.042394 	4930 	0.042037
41.11 	0.042553 	4935 	0.041841
41.15 	0.041894 	4941 	0.041539
41.19 	0.039757 	4930 	0.039400
41.23 	0.040696 	4939 	0.039866
41.27 	0.038329 	4931 	0.037735
41.31 	0.039530 	4933 	0.039173
41.35 	0.042730 	4938 	0.041781
41.39 	0.045611 	4933 	0.045255
41.43 	0.039359 	4929 	0.039002
41.47 	0.039586 	4926 	0.039110
41.51 	0.046761 	4940 	0.046405
41.55 	0.041337 	4935 	0.040981
41.59 	0.045003 	4933 	0.044172
41.63 	0.043945 	4938 	0.043352
41.67 	0.042510 	4940 	0.042036
41.71 	0.041548 	4934 	0.040836
41.75 	0.041996 	4929 	0.041640
41.79 	0.038430 	4944 	0.038075
41.83 	0.043019 	4928 	0.042069
41.87 	0.048227 	4935 	0.047990
41.91 	0.039708 	4936 	0.039234
41.95 	0.040965 	4931 	0.040609
41.99 	0.043425 	4905 	0.042589
42.03 	0.039279 	4939 	0.038805
42.07 	0.041726 	4937 	0.041132
42.11 	0.035996 	4945 	0.035759
42.15 	0.035439 	4938 	0.035321
42.19 	0.037694 	4908 	0.037336
42.23 	0.041292 	4892 	0.040573
42.27 	0.040829 	4874 	0.040468
42.31 	0.043872 	4855 	0.043028
42.35 	0.044647 	4838 	0.044142
42.39 	0.040383 	4804 	0.040017
42.43 	0.042988 	4792 	0.042744
42.47 	0.038825 	4765 	0.037964
42.51 	0.038794 	4743 	0.038794
42.55 	0.043331 	4708 	0.042957
42.59 	0.040812 	4729 	0.040317
42.63 	0.032703 	4709 	0.032330
42.67 	0.047182 	4684 	0.046557
42.71 	0.035385 	4663 	0.035259
42.75 	0.040936 	4617 	0.040809
42.79 	0.038629 	4582 	0.037862
42.83 	0.037037 	4536 	0.036779
42.87 	0.038008 	4499 	0.037357
42.91 	0.034560 	4456 	0.034429
42.95 	0.038496 	4416 	0.037966
42.99 	0.040593 	4385 	0.040192
43.03 	0.039926 	4333 	0.039791
43.07 	0.035382 	4296 	0.035109
43.11 	0.044888 	4255 	0.044338
43.15 	0.040181 	4206 	0.039206
43.19 	0.041965 	4194 	0.041406
43.23 	0.038758 	4154 	0.038171
43.27 	0.035079 	4105 	0.034508
43.31 	0.039225 	4079 	0.038938
43.35 	0.033978 	4032 	0.033688
43.39 	0.039230 	4002 	0.038938
43.43 	0.033838 	3960 	0.033395
43.47 	0.034430 	3921 	0.033982
43.51 	0.040753 	3877 	0.040300
43.55 	0.033063 	2964 	0.033063
43.59 	0.033219 	1746 	0.032883
43.63 	0.048951 	1001 	0.047195
43.67 	0.049801 	502 	0.049801
43.71 	0.029289 	239 	0.029289
43.75 	0.000000 	16 	0.000000