File: Example_Data/25SC_s1_0012.002.dat
#F C:\frames\spec\25SC_s1_0012.002
#C title =s:12 frm:2 25SC_s1
#C wavelength =0.15406

#S 1  fr_average C:\frames\spec\25SC_s1_0012.002 C:\win32app\speccom\mask.axs chi 0 180 0 360 0.02
#C 2 theta =0.000000 to 180 deg
#C   q   =0.000000 to 81.568 nm^-1
#C  chi  =0.000000 to 360 deg
#C collumns:
#C  1 position (2theta or chi in degrees)
#C  2 average intensity (sum of all counts in the region divided with number of pixels)
#C  3 Number of pixels in region)
#C  4 error (sum of sqrt(intensity) for all pixels divided by number)
#N 4
#L TTh  Int  N_pix  Err
32.99 	0.081967 	61 	0.081967
33.03 	0.063264 	1391 	0.062422
33.07 	0.046829 	2050 	0.045354
33.11 	0.060876 	2579 	0.059930
33.15 	0.058686 	2999 	0.057319
33.19 	0.057151 	3342 	0.057151
33.23 	0.061028 	3523 	0.060030
33.27 	0.059504 	3630 	0.059020
33.31 	0.056011 	3660 	0.055371
33.35 	0.055766 	3694 	0.055290
33.39 	0.067847 	3729 	0.066276
33.43 	0.057963 	3761 	0.056873
33.47 	0.060032 	3798 	0.058747
33.51 	0.062647 	3815 	0.061419
33.55 	0.056987 	3843 	0.056225
33.59 	0.055670 	3880 	0.054311
33.63 	0.057157 	3919 	0.056261
33.67 	0.054122 	3954 	0.053678
33.71 	0.061132 	3975 	0.060248
33.75 	0.059765 	3999 	0.058593
33.79 	0.055679 	4041 	0.054061
33.83 	0.058272 	4050 	0.057548
33.87 	0.057650 	4111 	0.056083
33.91 	0.062425 	4149 	0.061295
33.95 	0.057163 	4181 	0.056043
33.99 	0.058333 	4200 	0.056939
34.03 	0.058671 	4244 	0.057981
34.07 	0.058575 	4268 	0.058438
34.11 	0.058345 	4302 	0.057800
34.15 	0.057492 	4331 	0.056275
34.19 	0.056167 	4362 	0.055361
34.23 	0.062827 	4393 	0.062160
34.27 	0.050204 	4422 	0.049144
34.31 	0.056976 	4458 	0.055925
34.35 	0.058430 	4484 	0.057385
34.39 	0.055309 	4502 	0.054528
34.43 	0.059264 	4539 	0.058361
34.47 	0.053789 	4592 	0.053151
34.51 	0.059271 	4606 	0.058253
34.55 	0.057937 	4643 	0.057180
34.59 	0.056043 	4675 	0.055291
34.63 	0.053503 	4710 	0.052612
34.67 	0.054841 	4741 	0.053956
34.71 	0.061477 	4766 	0.060740
34.75 	0.049917 	4808 	0.049308
34.79 	0.052239 	4824 	0.051996
34.83 	0.062937 	4862 	0.062214
34.87 	0.053205 	4868 	0.052242
34.91 	0.054486 	4882 	0.053646
34.95 	0.057669 	4890 	0.056830
34.99 	0.056974 	4897 	0.055897
35.03 	0.057455 	4943 	0.056744
35.07 	0.065182 	4940 	0.064589
35.11 	0.055994 	4947 	0.054691
35.15 	0.061981 	4937 	0.061150
35.19 	0.059895 	4942 	0.058709
35.23 	0.059858 	4945 	0.058674
35.27 	0.061237 	4948 	0.060290
35.31 	0.057166 	4933 	0.056216
35.35 	0.062323 	4942 	0.061493
35.39 	0.054398 	4945 	0.053688
35.43 	0.051693 	4933 	0.050861
35.47 	0.052322 	4931 	0.051015
35.51 	0.060698 	4926 	0.059628
35.55 	0.062285 	4945 	0.061101
35.59 	0.055005 	4945 	0.054176
35.63 	0.059883 	4943 	0.058915
35.67 	0.055241 	4942 	0.054155
35.71 	0.057930 	4937 	0.056862
35.75 	0.055972 	4931 	0.054784
35.79 	0.059611 	4932 	0.058661
35.83 	0.059038 	4946 	0.057735
35.87 	0.053016 	4923 	0.051688
35.91 	0.054800 	4927 	0.053730
35.95 	0.050844 	4917 	0.049772
35.99 	0.060336 	4939 	0.059624
36.03 	0.056646 	4943 	0.056172
36.07 	0.062361 	4939 	0.061274
36.11 	0.059647 	4929 	0.059053
36.15 	0.053452 	4939 	0.052385
36.19 	0.060931 	4940 	0.059489
36.23 	0.062614 	4935 	0.061783
36.27 	0.058680 	4925 	0.057967
36.31 	0.057224 	4928 	0.056630
36.35 	0.059038 	4929 	0.058206
36.39 	0.059947 	4921 	0.058995
36.43 	0.060674 	4928 	0.059366
36.47 	0.060778 	4936 	0.059829
36.51 	0.057977 	4933 	0.056908
36.55 	0.056018 	4927 	0.055305
36.59 	0.062968 	4939 	0.061901
36.63 	0.059217 	4931 	0.058861
36.67 	0.058012 	4930 	0.057299
36.71 	0.059744 	4921 	0.058792
36.75 	0.062298 	4944 	0.060718
36.79 	0.060760 	4921 	0.059163
36.83 	0.056562 	4915 	0.055608
36.87 	0.055623 	4944 	0.054675
36.91 	0.060109 	4941 	0.059398
36.95 	0.057977 	4933 	0.056433
36.99 	0.057548 	4935 	0.056005
37.03 	0.060317 	4924 	0.059008
37.07 	0.060182 	4935 	0.058877
37.11 	0.055319 	4935 	0.054251
37.15 	0.055001 	4909 	0.054166
37.19 	0.051777 	4925 	0.050944
37.23 	0.047784 	4918 	0.046950
37.27 	0.058439 	4894 	0.057362
37.31 	0.055724 	4935 	0.054775
37.35 	0.062778 	4938 	0.061454
37.39 	0.053944 	4931 	0.053113
37.43 	0.050487 	4932 	0.050012
37.47 	0.051126 	4929 	0.049819
37.51 	0.062437 	4933 	0.061348
37.55 	0.061055 	4930 	0.060104
37.59 	0.062055 	4915 	0.060863
37.63 	0.050823 	4919 	0.049990
37.67 	0.053426 	4904 	0.052231
37.71 	0.050720 	4929 	0.049769
37.75 	0.057085 	4940 	0.056136
37.79 	0.051318 	4930 	0.050130
37.83 	0.054675 	4920 	0.053960
37.87 	0.051832 	4939 	0.051239
37.91 	0.052333 	4930 	0.051263
37.95 	0.057509 	4921 	0.056418
37.99 	0.053746 	4912 	0.053269
38.03 	0.047871 	4909 	0.047275
38.07 	0.052964 	4909 	0.051771
38.11 	0.054711 	4935 	0.053287
38.15 	0.055714 	4918 	0.055237
38.19 	0.048884 	4930 	0.048528
38.23 	0.048198 	4938 	0.047822
38.27 	0.049493 	4930 	0.048523
38.31 	0.058453 	4927 	0.057978
38.35 	0.055398 	4928 	0.054328
38.39 	0.055612 	4909 	0.055135
38.43 	0.055330 	4916 	0.054615
38.47 	0.057673 	4907 	0.056001
38.51 	0.062652 	4932 	0.061227
38.55 	0.057942 	4936 	0.056874
38.59 	0.057880 	4924 	0.056790
38.63 	0.060317 	4924 	0.059841
38.67 	0.059753 	4937 	0.058804
38.71 	0.055443 	4924 	0.054372
38.75 	0.064136 	4927 	0.062452
38.79 	0.056952 	4934 	0.055864
38.83 	0.055906 	4919 	0.054596
38.87 	0.059255 	4911 	0.058420
38.91 	0.056700 	4903 	0.055744
38.95 	0.049207 	4918 	0.048254
38.99 	0.055297 	4937 	0.054941
39.03 	0.051074 	4934 	0.050124
39.07 	0.049147 	4924 	0.048076
39.11 	0.045427 	4931 	0.044952
39.15 	0.048423 	4915 	0.047589
39.19 	0.050437 	4917 	0.049842
39.23 	0.049340 	4925 	0.048626
39.27 	0.044196 	4910 	0.044076
39.31 	0.044021 	4884 	0.042942
39.35 	0.047822 	4935 	0.047466
39.39 	0.047880 	4929 	0.046771
39.43 	0.047638 	4933 	0.047045
39.47 	0.045907 	4923 	0.044955
39.51 	0.043054 	4924 	0.042460
39.55 	0.041065 	4919 	0.040589
39.59 	0.047231 	4912 	0.046635
39.63 	0.042056 	4922 	0.041461
39.67 	0.045390 	4913 	0.044913
39.71 	0.048212 	4895 	0.047494
39.75 	0.047484 	4928 	0.047365
39.79 	0.049533 	4926 	0.048939
39.83 	0.046818 	4934 	0.046343
39.87 	0.046091 	4925 	0.045378
39.91 	0.042056 	4922 	0.041699
39.95 	0.048423 	4915 	0.047708
39.99 	0.042376 	4932 	0.042020
40.03 	0.045657 	4928 	0.045182
40.07 	0.044485 	4923 	0.043871
40.11 	0.045769 	4916 	0.045411
40.15 	0.042540 	4913 	0.042183
40.19 	0.047677 	4929 	0.046845
40.23 	0.045012 	4932 	0.044300
40.27 	0.043549 	4937 	0.043074
40.31 	0.043734 	4939 	0.043141
40.35 	0.050417 	4919 	0.050059
40.39 	0.038532 	4931 	0.038294
40.43 	0.041447 	4922 	0.041090
40.47 	0.037210 	4918 	0.036376
40.51 	0.045307 	4922 	0.044355
40.55 	0.047066 	4908 	0.046111
40.59 	0.038890 	4937 	0.038534
40.63 	0.038337 	4930 	0.037980
40.67 	0.046026 	4932 	0.046026
40.71 	0.044404 	4932 	0.044285
40.75 	0.044616 	4931 	0.044141
40.79 	0.038587 	4924 	0.038111
40.83 	0.036932 	4928 	0.036694
40.87 	0.041193 	4928 	0.040718
40.91 	0.044688 	4923 	0.044312
40.95 	0.043558 	4913 	0.043081
40.99 	0.044070 	4924 	0.043951
41.03 	0.037105 	4905 	0.036747
41.07 	0.041988 	4930 	0.041275
41.11 	0.042148 	4935 	0.041554
41.15 	0.042299 	4941 	0.041825
41.19 	0.038540 	4930 	0.037708
41.23 	0.044948 	4939 	0.044237
41.27 	0.044210 	4931 	0.043735
41.31 	0.039732 	4933 	0.039257
41.35 	0.040097 	4938 	0.039267
41.39 	0.042773 	4933 	0.041942
41.43 	0.047880 	4929 	0.047642
41.47 	0.042428 	4926 	0.042071
41.51 	0.039474 	4940 	0.038762
41.55 	0.040122 	4935 	0.039765
41.59 	0.043381 	4933 	0.042906
41.63 	0.043135 	4938 	0.042423
41.67 	0.043320 	4940 	0.042608
41.71 	0.038914 	4934 	0.038083
41.75 	0.037533 	4929 	0.036701
41.79 	0.040858 	4944 	0.040028
41.83 	0.040179 	4928 	0.039703
41.87 	0.040324 	4935 	0.039731
41.91 	0.042139 	4936 	0.041190
41.95 	0.043602 	4931 	0.043245
41.99 	0.035474 	4905 	0.034757
42.03 	0.045961 	4939 	0.045605
42.07 	0.037270 	4937 	0.036795
42.11 	0.043883 	4945 	0.043389
42.15 	0.041515 	4938 	0.041278
42.19 	0.039731 	4908 	0.039015
42.23 	0.039657 	4892 	0.039537
42.27 	0.042470 	4874 	0.042350
42.31 	0.037487 	4855 	0.037005
42.35 	0.039066 	4838 	0.038702
42.39 	0.041216 	4804 	0.040606
42.43 	0.040275 	4792 	0.039766
42.47 	0.039454 	4765 	0.038594
42.51 	0.040059 	4743 	0.039565
42.55 	0.043543 	4708 	0.042796
42.59 	0.041446 	4729 	0.040951
42.63 	0.038862 	4709 	0.038240
42.67 	0.038642 	4684 	0.038267
42.71 	0.039460 	4663 	0.038434
42.75 	0.041802 	4617 	0.041421
42.79 	0.036229 	4582 	0.035462
42.83 	0.038360 	4536 	0.038080
42.87 	0.040898 	4499 	0.040638
42.91 	0.039497 	4456 	0.038971
42.95 	0.039402 	4416 	0.038739
42.99 	0.038312 	4385 	0.037912
43.03 	0.037618 	4333 	0.036920
43.07 	0.035615 	4296 	0.035342
43.11 	0.039953 	4255 	0.039540
43.15 	0.039467 	4206 	0.038771
43.19 	0.041488 	4194 	0.040789
43.23 	0.036110 	4154 	0.036110
43.27 	0.039464 	4105 	0.039321
43.31 	0.039225 	4079 	0.038794
43.35 	0.042411 	4032 	0.041394
43.39 	0.042479 	4002 	0.042186
43.43 	0.037121 	3960 	0.036677
43.47 	0.039786 	3921 	0.039188
43.51 	0.035079 	3877 	0.034776
43.55 	0.046559 	2964 	0.045966
43.59 	0.041810 	1746 	0.041810
43.63 	0.037962 	1001 	0.037377
43.67 	0.029880 	502 	0.029880
43.71 	0.046025 	239 	0.046025
43.75 	0.125000 	16 	0.125000