File: Example_Data/25SC_s1_0036.001.dat
#F C:\frames\spec\25SC_s1_0036.001
#C title =s:36 frm:1 25SC_s1
#C wavelength =0.15406

#S 1  fr_average C:\frames\spec\25SC_s1_0036.001 C:\win32app\speccom\mask.axs chi 0 180 0 360 0.02
#C 2 theta =0.000000 to 180 deg
#C   q   =0.000000 to 81.568 nm^-1
#C  chi  =0.000000 to 360 deg
#C collumns:
#C  1 position (2theta or chi in degrees)
#C  2 average intensity (sum of all counts in the region divided with number of pixels)
#C  3 Number of pixels in region)
#C  4 error (sum of sqrt(intensity) for all pixels divided by number)
#N 4
#L TTh  Int  N_pix  Err
32.99 	0.098361 	61 	0.098361
33.03 	0.053918 	1391 	0.053076
33.07 	0.060976 	2050 	0.059833
33.11 	0.054672 	2579 	0.053764
33.15 	0.059020 	2999 	0.058238
33.19 	0.059246 	3342 	0.058720
33.23 	0.063582 	3523 	0.062723
33.27 	0.059504 	3630 	0.059020
33.31 	0.055738 	3660 	0.054777
33.35 	0.058202 	3694 	0.056775
33.39 	0.058461 	3729 	0.057807
33.43 	0.060090 	3761 	0.058533
33.47 	0.060821 	3798 	0.060050
33.51 	0.055046 	3815 	0.054278
33.55 	0.058288 	3843 	0.057373
33.59 	0.061082 	3880 	0.060328
33.63 	0.059964 	3919 	0.058420
33.67 	0.070056 	3954 	0.068130
33.71 	0.058616 	3975 	0.058027
33.75 	0.065016 	3999 	0.063820
33.79 	0.059391 	4041 	0.058666
33.83 	0.057778 	4050 	0.057344
33.87 	0.058866 	4111 	0.057727
33.91 	0.060738 	4149 	0.060032
33.95 	0.055967 	4181 	0.054566
33.99 	0.055952 	4200 	0.055255
34.03 	0.059142 	4244 	0.058153
34.07 	0.062559 	4268 	0.061323
34.11 	0.057648 	4302 	0.056694
34.15 	0.057031 	4331 	0.056084
34.19 	0.058230 	4362 	0.057022
34.23 	0.059413 	4393 	0.058057
34.27 	0.056762 	4422 	0.055834
34.31 	0.054060 	4458 	0.053535
34.35 	0.064897 	4484 	0.063308
34.39 	0.065749 	4502 	0.064838
34.43 	0.058824 	4539 	0.058307
34.47 	0.055749 	4592 	0.055111
34.51 	0.054928 	4606 	0.054292
34.55 	0.057721 	4643 	0.056586
34.59 	0.058182 	4675 	0.057555
34.63 	0.059023 	4710 	0.058008
34.67 	0.056950 	4741 	0.056456
34.71 	0.055812 	4766 	0.055197
34.75 	0.056780 	4808 	0.055664
34.79 	0.054312 	4824 	0.053705
34.83 	0.059646 	4862 	0.058441
34.87 	0.060189 	4868 	0.059226
34.91 	0.053052 	4882 	0.052452
34.95 	0.060941 	4890 	0.060222
34.99 	0.059424 	4897 	0.058587
35.03 	0.056848 	4943 	0.056019
35.07 	0.057085 	4940 	0.056473
35.11 	0.050334 	4947 	0.049623
35.15 	0.056512 	4937 	0.055681
35.19 	0.051801 	4942 	0.050497
35.23 	0.053994 	4945 	0.053639
35.27 	0.055174 	4948 	0.053872
35.31 	0.054733 	4933 	0.054021
35.35 	0.051801 	4942 	0.051208
35.39 	0.056623 	4945 	0.055438
35.43 	0.055950 	4933 	0.054743
35.47 	0.054756 	4931 	0.054162
35.51 	0.052375 	4926 	0.051781
35.55 	0.060667 	4945 	0.059364
35.59 	0.062487 	4945 	0.061046
35.63 	0.053409 	4943 	0.052461
35.67 	0.050789 	4942 	0.049841
35.71 	0.065019 	4937 	0.063951
35.75 	0.053539 	4931 	0.052707
35.79 	0.054745 	4932 	0.054269
35.83 	0.054185 	4946 	0.052882
35.87 	0.050173 	4923 	0.049935
35.91 	0.055409 	4927 	0.054319
35.95 	0.054505 	4917 	0.053075
35.99 	0.054060 	4939 	0.052854
36.03 	0.053207 	4943 	0.052614
36.07 	0.055274 	4939 	0.054069
36.11 	0.060053 	4929 	0.058369
36.15 	0.057906 	4939 	0.056483
36.19 	0.055466 	4940 	0.053905
36.23 	0.054509 	4935 	0.053559
36.27 	0.058883 	4925 	0.058051
36.31 	0.057630 	4928 	0.056917
36.35 	0.060864 	4929 	0.059795
36.39 	0.063199 	4921 	0.062246
36.43 	0.056615 	4928 	0.055308
36.47 	0.051459 	4936 	0.051221
36.51 	0.058382 	4933 	0.057907
36.55 	0.060686 	4927 	0.059616
36.59 	0.057502 	4939 	0.056553
36.63 	0.059420 	4931 	0.058707
36.67 	0.056389 	4930 	0.055320
36.71 	0.054054 	4921 	0.053102
36.75 	0.060073 	4944 	0.059480
36.79 	0.053444 	4921 	0.052254
36.83 	0.054527 	4915 	0.054289
36.87 	0.053803 	4944 	0.052618
36.91 	0.057883 	4941 	0.056342
36.95 	0.054936 	4933 	0.054461
36.99 	0.063830 	4935 	0.062999
37.03 	0.054630 	4924 	0.054273
37.07 	0.050861 	4935 	0.050149
37.11 	0.050051 	4935 	0.049338
37.15 	0.049705 	4909 	0.049108
37.19 	0.056041 	4925 	0.055565
37.23 	0.053680 	4918 	0.052847
37.27 	0.059869 	4894 	0.058313
37.31 	0.054711 	4935 	0.053643
37.35 	0.052248 	4938 	0.051655
37.39 	0.058203 	4931 	0.057114
37.43 	0.054339 	4932 	0.053151
37.47 	0.054981 	4929 	0.054387
37.51 	0.051693 	4933 	0.051099
37.55 	0.058824 	4930 	0.058111
37.59 	0.052899 	4915 	0.051827
37.63 	0.050620 	4919 	0.049191
37.67 	0.052610 	4904 	0.051655
37.71 	0.055386 	4929 	0.054911
37.75 	0.049595 	4940 	0.048884
37.79 	0.051116 	4930 	0.050878
37.83 	0.056707 	4920 	0.055993
37.87 	0.052642 	4939 	0.052286
37.91 	0.051724 	4930 	0.051249
37.95 	0.054257 	4921 	0.053662
37.99 	0.054967 	4912 	0.053894
38.03 	0.055612 	4909 	0.054180
38.07 	0.057038 	4909 	0.056561
38.11 	0.056738 	4935 	0.056025
38.15 	0.056324 	4918 	0.055490
38.19 	0.059635 	4930 	0.059041
38.23 	0.057108 	4938 	0.056159
38.27 	0.063083 	4930 	0.062133
38.31 	0.065557 	4927 	0.064725
38.35 	0.062703 	4928 	0.061871
38.39 	0.066409 	4909 	0.065693
38.43 	0.081977 	4916 	0.080289
38.47 	0.071734 	4907 	0.069944
38.51 	0.068127 	4932 	0.067176
38.55 	0.079417 	4936 	0.077874
38.59 	0.068440 	4924 	0.067132
38.63 	0.065394 	4924 	0.064085
38.67 	0.065222 	4937 	0.063798
38.71 	0.065597 	4924 	0.064764
38.75 	0.057845 	4927 	0.057131
38.79 	0.053304 	4934 	0.052235
38.83 	0.056312 	4919 	0.055002
38.87 	0.050906 	4911 	0.049833
38.91 	0.052621 	4903 	0.051765
38.95 	0.049817 	4918 	0.049579
38.99 	0.043954 	4937 	0.043717
39.03 	0.048642 	4934 	0.047692
39.07 	0.049553 	4924 	0.048720
39.11 	0.043399 	4931 	0.043043
39.15 	0.048627 	4915 	0.047912
39.19 	0.044946 	4917 	0.044112
39.23 	0.044670 	4925 	0.043837
39.27 	0.050102 	4910 	0.049267
39.31 	0.045455 	4884 	0.045095
39.35 	0.043364 	4935 	0.042889
39.39 	0.044837 	4929 	0.044361
39.43 	0.044800 	4933 	0.044325
39.47 	0.043673 	4923 	0.043078
39.51 	0.043461 	4924 	0.042985
39.55 	0.043505 	4919 	0.043028
39.59 	0.042345 	4912 	0.042226
39.63 	0.045916 	4922 	0.045202
39.67 	0.044576 	4913 	0.044337
39.71 	0.050664 	4895 	0.049826
39.75 	0.042208 	4928 	0.041257
39.79 	0.045879 	4926 	0.045403
39.83 	0.040130 	4934 	0.039774
39.87 	0.043452 	4925 	0.043075
39.91 	0.047135 	4922 	0.045945
39.95 	0.044557 	4915 	0.044081
39.99 	0.039943 	4932 	0.039706
40.03 	0.043831 	4928 	0.043475
40.07 	0.037579 	4923 	0.037222
40.11 	0.044345 	4916 	0.043749
40.15 	0.039487 	4913 	0.039129
40.19 	0.036721 	4929 	0.036127
40.23 	0.040552 	4932 	0.040294
40.27 	0.041523 	4937 	0.041049
40.31 	0.046163 	4939 	0.045452
40.35 	0.039845 	4919 	0.039607
40.39 	0.040763 	4931 	0.040169
40.43 	0.041650 	4922 	0.040936
40.47 	0.040057 	4918 	0.039938
40.51 	0.038805 	4922 	0.038210
40.55 	0.041361 	4908 	0.040645
40.59 	0.039903 	4937 	0.039547
40.63 	0.037525 	4930 	0.037169
40.67 	0.041160 	4932 	0.040803
40.71 	0.038321 	4932 	0.037727
40.75 	0.047860 	4931 	0.047504
40.79 	0.044476 	4924 	0.043505
40.83 	0.037135 	4928 	0.036778
40.87 	0.038758 	4928 	0.038045
40.91 	0.041235 	4923 	0.040759
40.95 	0.047832 	4913 	0.046243
40.99 	0.040414 	4924 	0.039938
41.03 	0.044037 	4905 	0.043798
41.07 	0.034686 	4930 	0.034329
41.11 	0.042351 	4935 	0.041876
41.15 	0.041490 	4941 	0.040660
41.19 	0.042191 	4930 	0.041359
41.23 	0.039887 	4939 	0.039175
41.27 	0.038532 	4931 	0.038294
41.31 	0.043584 	4933 	0.042990
41.35 	0.039085 	4938 	0.038729
41.39 	0.040138 	4933 	0.039188
41.43 	0.038344 	4929 	0.037513
41.47 	0.037353 	4926 	0.037115
41.51 	0.042915 	4940 	0.042441
41.55 	0.035258 	4935 	0.034902
41.59 	0.040341 	4933 	0.039984
41.63 	0.036452 	4938 	0.036215
41.67 	0.036842 	4940 	0.036486
41.71 	0.042967 	4934 	0.042117
41.75 	0.039156 	4929 	0.038324
41.79 	0.038026 	4944 	0.037907
41.83 	0.040990 	4928 	0.040634
41.87 	0.037487 	4935 	0.037230
41.91 	0.043152 	4936 	0.042559
41.95 	0.034273 	4931 	0.034035
41.99 	0.041590 	4905 	0.041232
42.03 	0.034217 	4939 	0.033624
42.07 	0.040308 	4937 	0.039596
42.11 	0.037412 	4945 	0.037056
42.15 	0.034427 	4938 	0.034427
42.19 	0.035860 	4908 	0.035382
42.23 	0.039452 	4892 	0.039093
42.27 	0.037546 	4874 	0.037306
42.31 	0.036663 	4855 	0.036301
42.35 	0.035759 	4838 	0.035254
42.39 	0.037261 	4804 	0.036651
42.43 	0.039858 	4792 	0.039002
42.47 	0.035257 	4765 	0.035134
42.51 	0.037107 	4743 	0.036984
42.55 	0.034197 	4708 	0.033824
42.59 	0.036794 	4729 	0.036299
42.63 	0.038649 	4709 	0.037779
42.67 	0.039923 	4684 	0.039548
42.71 	0.034313 	4663 	0.033810
42.75 	0.042019 	4617 	0.041638
42.79 	0.038848 	4582 	0.038592
42.83 	0.042549 	4536 	0.041903
42.87 	0.039787 	4499 	0.039005
42.91 	0.038600 	4456 	0.038337
42.95 	0.037817 	4416 	0.037154
42.99 	0.032839 	4385 	0.032305
43.03 	0.035772 	4333 	0.035366
43.07 	0.039106 	4296 	0.038697
43.11 	0.041363 	4255 	0.040537
43.15 	0.035188 	4206 	0.034491
43.19 	0.038388 	4194 	0.038109
43.23 	0.042128 	4154 	0.042128
43.27 	0.039708 	4105 	0.039422
43.31 	0.036283 	4079 	0.035853
43.35 	0.035714 	4032 	0.034843
43.39 	0.035982 	4002 	0.035543
43.43 	0.042424 	3960 	0.042276
43.47 	0.037235 	3921 	0.036937
43.51 	0.040237 	3877 	0.039784
43.55 	0.040486 	2964 	0.040288
43.59 	0.039519 	1746 	0.039183
43.63 	0.034965 	1001 	0.034380
43.67 	0.033865 	502 	0.033865
43.71 	0.012552 	239 	0.012552
43.75 	0.062500 	16 	0.062500