File: Example_Data/25SC_s1_0002.001.dat
#F C:\frames\spec\25SC_s1_0002.001
#C title =s:2 frm:1 25SC_s1
#C wavelength =0.15406

#S 1  fr_average C:\frames\spec\25SC_s1_0002.001 C:\win32app\speccom\mask.axs chi 0 180 0 360 0.02
#C 2 theta =0.000000 to 180 deg
#C   q   =0.000000 to 81.568 nm^-1
#C  chi  =0.000000 to 360 deg
#C collumns:
#C  1 position (2theta or chi in degrees)
#C  2 average intensity (sum of all counts in the region divided with number of pixels)
#C  3 Number of pixels in region)
#C  4 error (sum of sqrt(intensity) for all pixels divided by number)
#N 4
#L TTh  Int  N_pix  Err
32.99 	0.098361 	61 	0.098361
33.03 	0.085550 	1391 	0.083023
33.07 	0.068293 	2050 	0.066578
33.11 	0.084141 	2579 	0.082324
33.15 	0.073024 	2999 	0.071266
33.19 	0.069120 	3342 	0.067718
33.23 	0.076072 	3523 	0.073910
33.27 	0.071901 	3630 	0.070287
33.31 	0.074317 	3660 	0.072556
33.35 	0.073633 	3694 	0.072206
33.39 	0.079378 	3729 	0.076813
33.43 	0.065408 	3761 	0.064318
33.47 	0.068720 	3798 	0.067178
33.51 	0.071822 	3815 	0.069672
33.55 	0.062711 	3843 	0.062254
33.59 	0.070876 	3880 	0.069668
33.63 	0.072212 	3919 	0.070867
33.67 	0.068791 	3954 	0.067310
33.71 	0.074717 	3975 	0.072801
33.75 	0.068267 	3999 	0.066656
33.79 	0.066320 	4041 	0.065595
33.83 	0.071358 	4050 	0.070032
33.87 	0.075407 	4111 	0.074244
33.91 	0.074717 	4149 	0.073164
33.95 	0.061708 	4181 	0.060867
33.99 	0.076429 	4200 	0.073895
34.03 	0.069981 	4244 	0.069015
34.07 	0.067479 	4268 	0.066106
34.11 	0.065551 	4302 	0.064734
34.15 	0.069961 	4331 	0.068473
34.19 	0.069005 	4362 	0.067506
34.23 	0.069656 	4393 	0.068990
34.27 	0.075079 	4422 	0.073070
34.31 	0.073576 	4458 	0.071320
34.35 	0.066682 	4484 	0.065636
34.39 	0.071524 	4502 	0.069832
34.43 	0.072042 	4539 	0.070601
34.47 	0.067073 	4592 	0.065670
34.51 	0.079244 	4606 	0.076044
34.55 	0.072367 	4643 	0.071358
34.59 	0.073369 	4675 	0.071489
34.63 	0.070913 	4710 	0.068778
34.67 	0.072559 	4741 	0.071323
34.71 	0.074696 	4766 	0.073467
34.75 	0.078619 	4808 	0.075817
34.79 	0.066128 	4824 	0.064913
34.83 	0.066845 	4862 	0.065881
34.87 	0.069433 	4868 	0.068230
34.91 	0.065342 	4882 	0.064262
34.95 	0.070552 	4890 	0.069234
34.99 	0.076169 	4897 	0.074235
35.03 	0.069391 	4943 	0.068305
35.07 	0.066802 	4940 	0.065497
35.11 	0.072367 	4947 	0.071420
35.15 	0.069273 	4937 	0.067968
35.19 	0.066977 	4942 	0.066384
35.23 	0.068756 	4945 	0.067078
35.27 	0.064470 	4948 	0.063622
35.31 	0.070951 	4933 	0.068695
35.35 	0.073857 	4942 	0.071723
35.39 	0.075834 	4945 	0.074038
35.43 	0.072978 	4933 	0.071672
35.47 	0.068546 	4931 	0.067477
35.51 	0.072473 	4926 	0.071026
35.55 	0.070172 	4945 	0.068869
35.59 	0.068554 	4945 	0.066303
35.63 	0.070403 	4943 	0.069218
35.67 	0.067584 	4942 	0.066280
35.71 	0.070488 	4937 	0.068708
35.75 	0.069763 	4931 	0.068100
35.79 	0.075629 	4932 	0.073847
35.83 	0.074808 	4946 	0.073012
35.87 	0.067235 	4923 	0.065689
35.91 	0.075502 	4927 	0.074432
35.95 	0.077080 	4917 	0.075749
35.99 	0.069852 	4939 	0.068073
36.03 	0.077079 	4943 	0.075163
36.07 	0.067827 	4939 	0.065930
36.11 	0.071617 	4929 	0.070310
36.15 	0.071877 	4939 	0.070572
36.19 	0.069838 	4940 	0.069008
36.23 	0.072746 	4935 	0.071321
36.27 	0.080609 	4925 	0.079519
36.31 	0.068182 	4928 	0.066993
36.35 	0.071211 	4929 	0.069904
36.39 	0.077626 	4921 	0.076555
36.43 	0.072240 	4928 	0.070675
36.47 	0.075365 	4936 	0.074297
36.51 	0.077032 	4933 	0.074657
36.55 	0.077126 	4927 	0.075343
36.59 	0.071269 	4939 	0.070183
36.63 	0.072399 	4931 	0.070222
36.67 	0.077282 	4930 	0.075618
36.71 	0.078439 	4921 	0.076535
36.75 	0.076254 	4944 	0.074339
36.79 	0.076814 	4921 	0.075504
36.83 	0.068159 	4915 	0.066471
36.87 	0.084142 	4944 	0.082128
36.91 	0.068002 	4941 	0.066106
36.95 	0.071153 	4933 	0.068621
36.99 	0.078217 	4935 	0.076535
37.03 	0.067831 	4924 	0.066641
37.07 	0.073556 	4935 	0.071894
37.11 	0.078217 	4935 	0.076179
37.15 	0.068242 	4909 	0.067049
37.19 	0.070254 	4925 	0.068470
37.23 	0.075234 	4918 	0.073209
37.27 	0.067838 	4894 	0.066262
37.31 	0.070314 	4935 	0.069364
37.35 	0.077157 	4938 	0.075377
37.39 	0.075847 	4931 	0.074302
37.43 	0.067518 	4932 	0.066212
37.47 	0.067762 	4929 	0.065148
37.51 	0.065072 	4933 	0.064122
37.55 	0.065923 	4930 	0.064854
37.59 	0.066531 	4915 	0.064962
37.63 	0.065257 	4919 	0.064543
37.67 	0.063214 	4904 	0.061641
37.71 	0.067559 	4929 	0.066133
37.75 	0.074696 	4940 	0.073273
37.79 	0.065517 	4930 	0.064309
37.83 	0.065041 	4920 	0.064683
37.87 	0.072079 	4939 	0.070399
37.91 	0.065314 	4930 	0.064126
37.95 	0.070311 	4921 	0.068763
37.99 	0.066368 	4912 	0.065653
38.03 	0.068242 	4909 	0.066910
38.07 	0.061112 	4909 	0.060158
38.11 	0.068490 	4935 	0.067403
38.15 	0.070557 	4918 	0.068354
38.19 	0.070385 	4930 	0.069078
38.23 	0.082422 	4938 	0.080643
38.27 	0.074442 	4930 	0.072898
38.31 	0.077126 	4927 	0.074848
38.35 	0.083807 	4928 	0.080915
38.39 	0.088613 	4909 	0.086107
38.43 	0.095810 	4916 	0.093407
38.47 	0.095985 	4907 	0.093956
38.51 	0.093877 	4932 	0.091976
38.55 	0.093598 	4936 	0.091581
38.59 	0.090780 	4924 	0.089590
38.63 	0.095451 	4924 	0.093072
38.67 	0.088515 	4937 	0.086498
38.71 	0.084078 	4924 	0.082412
38.75 	0.073067 	4927 	0.072116
38.79 	0.063640 	4934 	0.062334
38.83 	0.070543 	4919 	0.068518
38.87 	0.062513 	4911 	0.060704
38.91 	0.062615 	4903 	0.061420
38.95 	0.065067 	4918 	0.063519
38.99 	0.060361 	4937 	0.058699
39.03 	0.054722 	4934 	0.053773
39.07 	0.057067 	4924 	0.056235
39.11 	0.052322 	4931 	0.051847
39.15 	0.060020 	4915 	0.059424
39.19 	0.052878 	4917 	0.051806
39.23 	0.049543 	4925 	0.049067
39.27 	0.057230 	4910 	0.056395
39.31 	0.052621 	4884 	0.051781
39.35 	0.065248 	4935 	0.063923
39.39 	0.056604 	4929 	0.056010
39.43 	0.054936 	4933 	0.054342
39.47 	0.050173 	4923 	0.048983
39.51 	0.062551 	4924 	0.061361
39.55 	0.054686 	4919 	0.054090
39.59 	0.056189 	4912 	0.055116
39.63 	0.054246 	4922 	0.053413
39.67 	0.054753 	4913 	0.054276
39.71 	0.055363 	4895 	0.054645
39.75 	0.053774 	4928 	0.052823
39.79 	0.055623 	4926 	0.054434
39.83 	0.046818 	4934 	0.046106
39.87 	0.049746 	4925 	0.049389
39.91 	0.054043 	4922 	0.053091
39.95 	0.044151 	4915 	0.044031
39.99 	0.052920 	4932 	0.051970
40.03 	0.054180 	4928 	0.053467
40.07 	0.052610 	4923 	0.052015
40.11 	0.060008 	4916 	0.059016
40.15 	0.055567 	4913 	0.054732
40.19 	0.045445 	4929 	0.044970
40.23 	0.057178 	4932 	0.055871
40.27 	0.061171 	4937 	0.059628
40.31 	0.052035 	4939 	0.051066
40.35 	0.050620 	4919 	0.050025
40.39 	0.051308 	4931 	0.050001
40.43 	0.050386 	4922 	0.049672
40.47 	0.054494 	4918 	0.054136
40.51 	0.059122 	4922 	0.058170
40.55 	0.052567 	4908 	0.052090
40.59 	0.050638 	4937 	0.049452
40.63 	0.047465 	4930 	0.047108
40.67 	0.049878 	4932 	0.049284
40.71 	0.045823 	4932 	0.045586
40.75 	0.045832 	4931 	0.045595
40.79 	0.050975 	4924 	0.050618
40.83 	0.051745 	4928 	0.051151
40.87 	0.048093 	4928 	0.047023
40.91 	0.052407 	4923 	0.051535
40.95 	0.051496 	4913 	0.050781
40.99 	0.050569 	4924 	0.049597
41.03 	0.050561 	4905 	0.050083
41.07 	0.048276 	4930 	0.047801
41.11 	0.049443 	4935 	0.048731
41.15 	0.048978 	4941 	0.048029
41.19 	0.053550 	4930 	0.053074
41.23 	0.055882 	4939 	0.055170
41.27 	0.052728 	4931 	0.052015
41.31 	0.058382 	4933 	0.056720
41.35 	0.052045 	4938 	0.051334
41.39 	0.055139 	4933 	0.054070
41.43 	0.049909 	4929 	0.049552
41.47 	0.045676 	4926 	0.045300
41.51 	0.050202 	4940 	0.049728
41.55 	0.046403 	4935 	0.045928
41.59 	0.053314 	4933 	0.052364
41.63 	0.050830 	4938 	0.049644
41.67 	0.049393 	4940 	0.048918
41.71 	0.054317 	4934 	0.053842
41.75 	0.049503 	4929 	0.048314
41.79 	0.051780 	4944 	0.051543
41.83 	0.047687 	4928 	0.046973
41.87 	0.055724 	4935 	0.054894
41.91 	0.044773 	4936 	0.044180
41.95 	0.048469 	4931 	0.048112
41.99 	0.046687 	4905 	0.046090
42.03 	0.047783 	4939 	0.047546
42.07 	0.049828 	4937 	0.048760
42.11 	0.046916 	4945 	0.046442
42.15 	0.049413 	4938 	0.049057
42.19 	0.044621 	4908 	0.044144
42.23 	0.051513 	4892 	0.051034
42.27 	0.042675 	4874 	0.042195
42.31 	0.050875 	4855 	0.050151
42.35 	0.044647 	4838 	0.043678
42.39 	0.049542 	4804 	0.049054
42.43 	0.053214 	4792 	0.052236
42.47 	0.056034 	4765 	0.055296
42.51 	0.043854 	4743 	0.043360
42.55 	0.044605 	4708 	0.043610
42.59 	0.045464 	4729 	0.044597
42.63 	0.045445 	4709 	0.044823
42.67 	0.045474 	4684 	0.044828
42.71 	0.041819 	4663 	0.041567
42.75 	0.043318 	4617 	0.042938
42.79 	0.051724 	4582 	0.050446
42.83 	0.046076 	4536 	0.045947
42.87 	0.046455 	4499 	0.045934
42.91 	0.044434 	4456 	0.043777
42.95 	0.049366 	4416 	0.048305
42.99 	0.046978 	4385 	0.045910
43.03 	0.048696 	4333 	0.047885
43.07 	0.050512 	4296 	0.050103
43.11 	0.046298 	4255 	0.045748
43.15 	0.044936 	4206 	0.044657
43.19 	0.044588 	4194 	0.043889
43.23 	0.045017 	4154 	0.044453
43.27 	0.047016 	4105 	0.046302
43.31 	0.046580 	4079 	0.046149
43.35 	0.046379 	4032 	0.045507
43.39 	0.045477 	4002 	0.045038
43.43 	0.046970 	3960 	0.045786
43.47 	0.052538 	3921 	0.051940
43.51 	0.049007 	3877 	0.048252
43.55 	0.048920 	2964 	0.047735
43.59 	0.046964 	1746 	0.046293
43.63 	0.041958 	1001 	0.040788
43.67 	0.047809 	502 	0.047809
43.71 	0.046025 	239 	0.046025
43.75 	0.000000 	16 	0.000000