File: Example_Data/25SC_s1_0006.004.dat
#F C:\frames\spec\25SC_s1_0006.004
#C title =s:6 frm:4 25SC_s1
#C wavelength =0.15406

#S 1  fr_average C:\frames\spec\25SC_s1_0006.004 C:\win32app\speccom\mask.axs chi 0 180 0 360 0.02
#C 2 theta =0.000000 to 180 deg
#C   q   =0.000000 to 81.568 nm^-1
#C  chi  =0.000000 to 360 deg
#C collumns:
#C  1 position (2theta or chi in degrees)
#C  2 average intensity (sum of all counts in the region divided with number of pixels)
#C  3 Number of pixels in region)
#C  4 error (sum of sqrt(intensity) for all pixels divided by number)
#N 4
#L TTh  Int  N_pix  Err
32.99 	0.049180 	61 	0.049180
33.03 	0.062545 	1391 	0.060018
33.07 	0.061463 	2050 	0.060559
33.11 	0.046917 	2579 	0.045782
33.15 	0.066689 	2999 	0.066298
33.19 	0.058947 	3342 	0.058421
33.23 	0.059041 	3523 	0.058182
33.27 	0.053719 	3630 	0.052240
33.31 	0.061202 	3660 	0.060082
33.35 	0.061992 	3694 	0.061358
33.39 	0.060338 	3729 	0.059395
33.43 	0.057166 	3761 	0.056075
33.47 	0.052133 	3798 	0.051670
33.51 	0.050590 	3815 	0.049668
33.55 	0.053344 	3843 	0.052277
33.59 	0.068557 	3880 	0.066745
33.63 	0.059454 	3919 	0.059006
33.67 	0.055893 	3954 	0.055152
33.71 	0.067925 	3975 	0.066746
33.75 	0.064266 	3999 	0.062948
33.79 	0.057659 	4041 	0.056644
33.83 	0.058025 	4050 	0.056868
33.87 	0.060812 	4111 	0.059245
33.91 	0.058809 	4149 	0.058103
33.95 	0.054532 	4181 	0.053972
33.99 	0.056190 	4200 	0.055912
34.03 	0.056079 	4244 	0.055527
34.07 	0.065136 	4268 	0.064175
34.11 	0.058810 	4302 	0.058401
34.15 	0.054722 	4331 	0.054181
34.19 	0.054333 	4362 	0.053124
34.23 	0.057819 	4393 	0.056886
34.27 	0.059701 	4422 	0.059017
34.31 	0.063033 	4458 	0.062376
34.35 	0.058430 	4484 	0.057646
34.39 	0.062861 	4502 	0.061560
34.43 	0.060586 	4539 	0.059941
34.47 	0.060976 	4592 	0.059700
34.51 	0.067521 	4606 	0.066503
34.55 	0.062029 	4643 	0.060084
34.59 	0.062888 	4675 	0.061885
34.63 	0.064331 	4710 	0.062839
34.67 	0.056317 	4741 	0.055452
34.71 	0.056861 	4766 	0.056369
34.75 	0.060940 	4808 	0.059234
34.79 	0.058872 	4824 	0.058265
34.83 	0.071164 	4862 	0.069236
34.87 	0.057313 	4868 	0.056451
34.91 	0.056329 	4882 	0.055489
34.95 	0.058282 	4890 	0.057084
34.99 	0.057382 	4897 	0.056047
35.03 	0.069796 	4943 	0.068255
35.07 	0.057692 	4940 	0.056981
35.11 	0.056600 	4947 	0.056008
35.15 	0.056917 	4937 	0.055948
35.19 	0.061311 	4942 	0.060481
35.23 	0.061881 	4945 	0.060696
35.27 	0.061439 	4948 	0.060729
35.31 	0.060409 	4933 	0.059341
35.35 	0.062323 	4942 	0.061612
35.39 	0.061274 	4945 	0.060326
35.43 	0.057977 	4933 	0.056908
35.47 	0.064084 	4931 	0.063015
35.51 	0.059074 	4926 	0.057647
35.55 	0.062892 	4945 	0.061352
35.59 	0.058241 	4945 	0.056938
35.63 	0.060085 	4943 	0.059137
35.67 	0.062728 	4942 	0.061286
35.71 	0.055297 	4937 	0.054585
35.75 	0.059623 	4931 	0.058415
35.79 	0.057380 	4932 	0.056549
35.83 	0.061868 	4946 	0.060921
35.87 	0.064392 	4923 	0.063083
35.91 	0.065760 	4927 	0.064928
35.95 	0.057759 	4917 	0.057163
35.99 	0.058514 	4939 	0.057328
36.03 	0.049970 	4943 	0.049733
36.07 	0.062766 	4939 	0.061323
36.11 	0.063096 	4929 	0.061294
36.15 	0.055274 	4939 	0.054207
36.19 	0.062955 	4940 	0.061394
36.23 	0.063830 	4935 	0.062761
36.27 	0.061117 	4925 	0.060403
36.31 	0.058036 	4928 	0.057085
36.35 	0.052343 	4929 	0.050561
36.39 	0.056086 	4921 	0.055253
36.43 	0.060065 	4928 	0.058976
36.47 	0.058955 	4936 	0.057412
36.51 	0.065072 	4933 	0.063409
36.55 	0.055815 	4927 	0.054369
36.59 	0.066410 	4939 	0.064256
36.63 	0.061042 	4931 	0.060448
36.67 	0.057606 	4930 	0.056894
36.71 	0.055883 	4921 	0.055288
36.75 	0.057039 	4944 	0.055104
36.79 	0.059134 	4921 	0.057686
36.83 	0.064090 	4915 	0.062898
36.87 	0.053196 	4944 	0.051774
36.91 	0.060716 	4941 	0.059412
36.95 	0.063856 	4933 	0.062668
36.99 	0.061601 	4935 	0.059801
37.03 	0.058895 	4924 	0.057825
37.07 	0.066667 	4935 	0.064767
37.11 	0.057953 	4935 	0.057360
37.15 	0.058260 	4909 	0.056451
37.19 	0.052995 	4925 	0.052281
37.23 	0.058560 	4918 	0.058322
37.27 	0.053331 	4894 	0.052493
37.31 	0.059777 	4935 	0.058353
37.35 	0.057311 	4938 	0.056599
37.39 	0.056581 	4931 	0.055512
37.43 	0.056975 	4932 	0.055787
37.47 	0.055792 	4929 	0.054941
37.51 	0.055950 	4933 	0.054505
37.55 	0.050507 	4930 	0.049913
37.59 	0.048627 	4915 	0.047912
37.63 	0.051433 	4919 	0.050600
37.67 	0.061582 	4904 	0.060866
37.71 	0.057821 	4929 	0.056633
37.75 	0.055466 	4940 	0.054873
37.79 	0.056389 	4930 	0.055795
37.83 	0.061382 	4920 	0.060311
37.87 	0.057299 	4939 	0.056706
37.91 	0.058824 	4930 	0.057992
37.95 	0.058728 	4921 	0.057518
37.99 	0.055171 	4912 	0.054336
38.03 	0.057242 	4909 	0.056406
38.07 	0.058871 	4909 	0.058155
38.11 	0.059372 	4935 	0.058541
38.15 	0.051850 	4918 	0.051017
38.19 	0.058215 	4930 	0.056789
38.23 	0.059741 	4938 	0.058317
38.27 	0.066937 	4930 	0.065967
38.31 	0.063933 	4927 	0.063220
38.35 	0.063312 	4928 	0.061410
38.39 	0.069261 	4909 	0.068187
38.43 	0.075468 	4916 	0.073780
38.47 	0.069289 	4907 	0.068334
38.51 	0.074818 	4932 	0.072798
38.55 	0.061183 	4936 	0.059759
38.59 	0.058489 	4924 	0.057418
38.63 	0.067831 	4924 	0.066146
38.67 	0.063601 	4937 	0.061940
38.71 	0.060317 	4924 	0.058870
38.75 	0.050538 	4927 	0.049567
38.79 	0.061208 	4934 	0.060614
38.83 	0.053669 	4919 	0.052479
38.87 	0.058847 	4911 	0.057535
38.91 	0.050581 	4903 	0.049864
38.95 	0.058560 	4918 	0.057846
38.99 	0.051651 	4937 	0.050939
39.03 	0.056344 	4934 	0.055394
39.07 	0.048741 	4924 	0.048146
39.11 	0.057798 	4931 	0.057322
39.15 	0.062055 	4915 	0.061101
39.19 	0.051454 	4917 	0.050739
39.23 	0.050558 	4925 	0.050202
39.27 	0.053157 	4910 	0.052441
39.31 	0.051802 	4884 	0.050942
39.35 	0.049848 	4935 	0.049017
39.39 	0.055995 	4929 	0.054926
39.43 	0.052098 	4933 	0.051029
39.47 	0.050173 	4923 	0.049221
39.51 	0.047929 	4924 	0.047096
39.55 	0.057735 	4919 	0.057140
39.59 	0.052321 	4912 	0.051725
39.63 	0.055668 	4922 	0.055430
39.67 	0.061266 	4913 	0.059696
39.71 	0.052298 	4895 	0.051341
39.75 	0.062703 	4928 	0.061276
39.79 	0.053796 	4926 	0.052964
39.83 	0.063843 	4934 	0.062537
39.87 	0.058477 	4925 	0.057288
39.91 	0.053434 	4922 	0.052719
39.95 	0.059613 	4915 	0.058541
39.99 	0.047242 	4932 	0.046411
40.03 	0.060065 	4928 	0.058757
40.07 	0.056470 	4923 	0.055756
40.11 	0.056550 	4916 	0.055716
40.15 	0.050071 	4913 	0.048959
40.19 	0.053966 	4929 	0.053729
40.23 	0.054136 	4932 	0.053542
40.27 	0.054081 	4937 	0.053132
40.31 	0.049605 	4939 	0.048894
40.35 	0.051027 	4919 	0.050312
40.39 	0.051714 	4931 	0.050882
40.43 	0.056684 	4922 	0.056208
40.47 	0.055714 	4918 	0.054761
40.51 	0.055872 	4922 	0.054562
40.55 	0.056642 	4908 	0.056165
40.59 	0.053271 	4937 	0.052915
40.63 	0.055578 	4930 	0.054390
40.67 	0.057380 	4932 	0.056787
40.71 	0.051500 	4932 	0.050907
40.75 	0.058000 	4931 	0.056575
40.79 	0.055443 	4924 	0.054610
40.83 	0.051948 	4928 	0.050878
40.87 	0.056209 	4928 	0.055377
40.91 	0.048345 	4923 	0.047750
40.95 	0.050275 	4913 	0.050036
40.99 	0.053818 	4924 	0.052509
41.03 	0.049541 	4905 	0.048705
41.07 	0.055375 	4930 	0.055019
41.11 	0.053293 	4935 	0.052699
41.15 	0.053835 	4941 	0.053242
41.19 	0.054970 	4930 	0.054375
41.23 	0.054464 	4939 	0.053634
41.27 	0.056581 	4931 	0.055155
41.31 	0.056963 	4933 	0.055538
41.35 	0.049008 	4938 	0.048296
41.39 	0.055544 	4933 	0.054476
41.43 	0.049909 	4929 	0.048938
41.47 	0.051563 	4926 	0.050374
41.51 	0.052834 	4940 	0.052004
41.55 	0.045795 	4935 	0.045321
41.59 	0.051895 	4933 	0.051539
41.63 	0.048198 	4938 	0.047585
41.67 	0.049798 	4940 	0.049205
41.71 	0.054114 	4934 	0.053026
41.75 	0.051532 	4929 	0.050938
41.79 	0.049757 	4944 	0.048928
41.83 	0.051136 	4928 	0.050067
41.87 	0.050861 	4935 	0.049674
41.91 	0.051661 	4936 	0.050831
41.95 	0.054553 	4931 	0.053583
41.99 	0.048114 	4905 	0.047636
42.03 	0.045961 	4939 	0.045605
42.07 	0.049018 	4937 	0.048306
42.11 	0.044489 	4945 	0.044252
42.15 	0.047590 	4938 	0.046977
42.19 	0.041972 	4908 	0.041376
42.23 	0.048651 	4892 	0.048531
42.27 	0.051087 	4874 	0.050727
42.31 	0.053759 	4855 	0.052794
42.35 	0.048367 	4838 	0.048004
42.39 	0.051415 	4804 	0.050562
42.43 	0.050501 	4792 	0.049747
42.47 	0.050997 	4765 	0.050382
42.51 	0.049547 	4743 	0.048929
42.55 	0.052464 	4708 	0.051821
42.59 	0.050962 	4729 	0.049971
42.63 	0.050966 	4709 	0.050199
42.67 	0.046968 	4684 	0.046343
42.71 	0.046751 	4663 	0.046249
42.75 	0.047000 	4617 	0.046493
42.79 	0.051069 	4582 	0.049898
42.83 	0.044533 	4536 	0.044145
42.87 	0.047788 	4499 	0.047268
42.91 	0.051391 	4456 	0.050734
42.95 	0.049819 	4416 	0.049023
42.99 	0.047434 	4385 	0.046633
43.03 	0.044542 	4333 	0.043866
43.07 	0.050047 	4296 	0.049342
43.11 	0.041363 	4255 	0.041363
43.15 	0.046362 	4206 	0.045527
43.19 	0.046018 	4194 	0.045459
43.23 	0.053924 	4154 	0.053078
43.27 	0.048477 	4105 	0.048192
43.31 	0.045354 	4079 	0.044923
43.35 	0.049851 	4032 	0.048834
43.39 	0.046227 	4002 	0.045641
43.43 	0.043939 	3960 	0.043348
43.47 	0.044887 	3921 	0.044588
43.51 	0.051844 	3877 	0.051089
43.55 	0.045209 	2964 	0.044814
43.59 	0.049255 	1746 	0.048584
43.63 	0.049950 	1001 	0.049950
43.67 	0.037849 	502 	0.036682
43.71 	0.046025 	239 	0.046025
43.75 	0.000000 	16 	0.000000