File: Example_Data/25SC_s1_0021.003.dat
#F C:\frames\spec\25SC_s1_0021.003
#C title =s:21 frm:3 25SC_s1
#C wavelength =0.15406

#S 1  fr_average C:\frames\spec\25SC_s1_0021.003 C:\win32app\speccom\mask.axs chi 0 180 0 360 0.02
#C 2 theta =0.000000 to 180 deg
#C   q   =0.000000 to 81.568 nm^-1
#C  chi  =0.000000 to 360 deg
#C collumns:
#C  1 position (2theta or chi in degrees)
#C  2 average intensity (sum of all counts in the region divided with number of pixels)
#C  3 Number of pixels in region)
#C  4 error (sum of sqrt(intensity) for all pixels divided by number)
#N 4
#L TTh  Int  N_pix  Err
32.99 	0.098361 	61 	0.098361
33.03 	0.048167 	1391 	0.047746
33.07 	0.063415 	2050 	0.061986
33.11 	0.062815 	2579 	0.060998
33.15 	0.057019 	2999 	0.056238
33.19 	0.060443 	3342 	0.059216
33.23 	0.059324 	3523 	0.057828
33.27 	0.056749 	3630 	0.055714
33.31 	0.063661 	3660 	0.062701
33.35 	0.060368 	3694 	0.059258
33.39 	0.063288 	3729 	0.062659
33.43 	0.067003 	3761 	0.066225
33.47 	0.061348 	3798 	0.059806
33.51 	0.059502 	3815 	0.058427
33.55 	0.054905 	3843 	0.054448
33.59 	0.064691 	3880 	0.063483
33.63 	0.064812 	3919 	0.063467
33.67 	0.061710 	3954 	0.060673
33.71 	0.067170 	3975 	0.065401
33.75 	0.061765 	3999 	0.060154
33.79 	0.060134 	4041 	0.058660
33.83 	0.056543 	4050 	0.055820
33.87 	0.062272 	4111 	0.060990
33.91 	0.057363 	4149 	0.056798
33.95 	0.061947 	4181 	0.060686
33.99 	0.069524 	4200 	0.068129
34.03 	0.065269 	4244 	0.064302
34.07 	0.053655 	4268 	0.052557
34.11 	0.055788 	4302 	0.054971
34.15 	0.064188 	4331 	0.063106
34.19 	0.058918 	4362 	0.058649
34.23 	0.061006 	4393 	0.059939
34.27 	0.058118 	4422 	0.056926
34.31 	0.058098 	4458 	0.057047
34.35 	0.057092 	4484 	0.055764
34.39 	0.061528 	4502 	0.059186
34.43 	0.061027 	4539 	0.060381
34.47 	0.057056 	4592 	0.056163
34.51 	0.056665 	4606 	0.055902
34.55 	0.062460 	4643 	0.061703
34.59 	0.057754 	4675 	0.056752
34.63 	0.058811 	4710 	0.058065
34.67 	0.062645 	4741 	0.061904
34.71 	0.056651 	4766 	0.055791
34.75 	0.060524 	4808 	0.060159
34.79 	0.056592 	4824 	0.055621
34.83 	0.056767 	4862 	0.055803
34.87 	0.064297 	4868 	0.062974
34.91 	0.057558 	4882 	0.056838
34.95 	0.056646 	4890 	0.056028
34.99 	0.066367 	4897 	0.065530
35.03 	0.061097 	4943 	0.059437
35.07 	0.062551 	4940 	0.061721
35.11 	0.057004 	4947 	0.055939
35.15 	0.059753 	4937 	0.058665
35.19 	0.056657 	4942 	0.055946
35.23 	0.065723 	4945 	0.064400
35.27 	0.061035 	4948 	0.059141
35.31 	0.054733 	4933 	0.054021
35.35 	0.061109 	4942 	0.059805
35.39 	0.058847 	4945 	0.058373
35.43 	0.059599 	4933 	0.058649
35.47 	0.054756 	4931 	0.054162
35.51 	0.058465 	4926 	0.056523
35.55 	0.059050 	4945 	0.058339
35.59 	0.054601 	4945 	0.054364
35.63 	0.057253 	4943 	0.056305
35.67 	0.060299 	4942 	0.059470
35.71 	0.056107 	4937 	0.055039
35.75 	0.059623 	4931 	0.058316
35.79 	0.058191 	4932 	0.057716
35.83 	0.055196 	4946 	0.054249
35.87 	0.061345 	4923 	0.060373
35.91 	0.053785 	4927 	0.052834
35.95 	0.052268 	4917 	0.052029
35.99 	0.058109 	4939 	0.057022
36.03 	0.054623 	4943 	0.053912
36.07 	0.058514 	4939 	0.057684
36.11 	0.060053 	4929 	0.059201
36.15 	0.053857 	4939 	0.053620
36.19 	0.062753 	4940 	0.062042
36.23 	0.063830 	4935 	0.062604
36.27 	0.060102 	4925 	0.059031
36.31 	0.055601 	4928 	0.054769
36.35 	0.061067 	4929 	0.060354
36.39 	0.059541 	4921 	0.058588
36.43 	0.062703 	4928 	0.061752
36.47 	0.058752 	4936 	0.057635
36.51 	0.053720 	4933 	0.053126
36.55 	0.050944 	4927 	0.050112
36.59 	0.057704 	4939 	0.056261
36.63 	0.053336 	4931 	0.051891
36.67 	0.055375 	4930 	0.054187
36.71 	0.059338 	4921 	0.058028
36.75 	0.057443 	4944 	0.056358
36.79 	0.054460 	4921 	0.054222
36.83 	0.053917 	4915 	0.053082
36.87 	0.055623 	4944 	0.054794
36.91 	0.057276 	4941 	0.056802
36.95 	0.057166 	4933 	0.055979
36.99 	0.053698 	4935 	0.052392
37.03 	0.053818 	4924 	0.053104
37.07 	0.056130 	4935 	0.054824
37.11 	0.054509 	4935 	0.054271
37.15 	0.056834 	4909 	0.055760
37.19 	0.050761 	4925 	0.049691
37.23 	0.056934 	4918 	0.055862
37.27 	0.053739 	4894 	0.052901
37.31 	0.054914 	4935 	0.053846
37.35 	0.053868 	4938 	0.053393
37.39 	0.052728 	4931 	0.052371
37.43 	0.050487 	4932 	0.049418
37.47 	0.053966 	4929 	0.053016
37.51 	0.053112 	4933 	0.052162
37.55 	0.056389 	4930 	0.055320
37.59 	0.055951 	4915 	0.054482
37.63 	0.052856 	4919 	0.051904
37.67 	0.045269 	4904 	0.044911
37.71 	0.056604 	4929 	0.055772
37.75 	0.048381 	4940 	0.047195
37.79 	0.057404 	4930 	0.056572
37.83 	0.054065 	4920 	0.053470
37.87 	0.052845 	4939 	0.051777
37.91 	0.051116 	4930 	0.050284
37.95 	0.052225 	4921 	0.051511
37.99 	0.046417 	4912 	0.045701
38.03 	0.051945 	4909 	0.051349
38.07 	0.050723 	4909 	0.049888
38.11 	0.054509 	4935 	0.053559
38.15 	0.051647 	4918 	0.050456
38.19 	0.053550 	4930 	0.052837
38.23 	0.054273 	4938 	0.053680
38.27 	0.051318 	4930 	0.051200
38.31 	0.051756 	4927 	0.051280
38.35 	0.064123 	4928 	0.063529
38.39 	0.060705 	4909 	0.059392
38.43 	0.061229 	4916 	0.060156
38.47 	0.060526 	4907 	0.059332
38.51 	0.057989 	4932 	0.057395
38.55 	0.061386 	4936 	0.060792
38.59 	0.050975 	4924 	0.050142
38.63 	0.061535 	4924 	0.060941
38.67 	0.054892 	4937 	0.053824
38.71 	0.062754 	4924 	0.061426
38.75 	0.057033 	4927 	0.055368
38.79 	0.051074 	4934 	0.050698
38.83 	0.049400 	4919 	0.048686
38.87 	0.047852 	4911 	0.046878
38.91 	0.046910 	4903 	0.046671
38.95 	0.051647 	4918 	0.051409
38.99 	0.052258 	4937 	0.051784
39.03 	0.044183 	4934 	0.043233
39.07 	0.047319 	4924 	0.046724
39.11 	0.049077 	4931 	0.048246
39.15 	0.046389 	4915 	0.045793
39.19 	0.048200 	4917 	0.046771
39.23 	0.037563 	4925 	0.037445
39.27 	0.048676 	4910 	0.048438
39.31 	0.044840 	4884 	0.044001
39.35 	0.054711 	4935 	0.054236
39.39 	0.049503 	4929 	0.048889
39.43 	0.043787 	4933 	0.042956
39.47 	0.043063 	4923 	0.041992
39.51 	0.045288 	4924 	0.044813
39.55 	0.042692 	4919 	0.042453
39.59 	0.052524 	4912 	0.051093
39.63 	0.055465 	4922 	0.054037
39.67 	0.050885 	4913 	0.050170
39.71 	0.047804 	4895 	0.046847
39.75 	0.047078 	4928 	0.046840
39.79 	0.055217 	4926 	0.054147
39.83 	0.049858 	4934 	0.049146
39.87 	0.051168 	4925 	0.049978
39.91 	0.049980 	4922 	0.049246
39.95 	0.048016 	4915 	0.046705
39.99 	0.047040 	4932 	0.046327
40.03 	0.052151 	4928 	0.051557
40.07 	0.042454 	4923 	0.042097
40.11 	0.046176 	4916 	0.045222
40.15 	0.051496 	4913 	0.050900
40.19 	0.046257 	4929 	0.045900
40.23 	0.040552 	4932 	0.040076
40.27 	0.044967 	4937 	0.044255
40.31 	0.050820 	4939 	0.050583
40.35 	0.051840 	4919 	0.051244
40.39 	0.050700 	4931 	0.049987
40.43 	0.049167 	4922 	0.048691
40.47 	0.050224 	4918 	0.049152
40.51 	0.048557 	4922 	0.048081
40.55 	0.048492 	4908 	0.047776
40.59 	0.049220 	4937 	0.048152
40.63 	0.045030 	4930 	0.043961
40.67 	0.049473 	4932 	0.048998
40.71 	0.041768 	4932 	0.041293
40.75 	0.046644 	4931 	0.046287
40.79 	0.047522 	4924 	0.046571
40.83 	0.043425 	4928 	0.042831
40.87 	0.049513 	4928 	0.049038
40.91 	0.043673 	4923 	0.043316
40.95 	0.048036 	4913 	0.046705
40.99 	0.045695 	4924 	0.045219
41.03 	0.044444 	4905 	0.044086
41.07 	0.044016 	4930 	0.043422
41.11 	0.043566 	4935 	0.042735
41.15 	0.043109 	4941 	0.042516
41.19 	0.048276 	4930 	0.048038
41.23 	0.042519 	4939 	0.042163
41.27 	0.043805 	4931 	0.042854
41.31 	0.046422 	4933 	0.045828
41.35 	0.046173 	4938 	0.045461
41.39 	0.044598 	4933 	0.043885
41.43 	0.043619 	4929 	0.043025
41.47 	0.043646 	4926 	0.042932
41.51 	0.045344 	4940 	0.044633
41.55 	0.048227 	4935 	0.047752
41.59 	0.041151 	4933 	0.040320
41.63 	0.048198 	4938 	0.047348
41.67 	0.034008 	4940 	0.033652
41.71 	0.039927 	4934 	0.039690
41.75 	0.038547 	4929 	0.038191
41.79 	0.042476 	4944 	0.041765
41.83 	0.045049 	4928 	0.044217
41.87 	0.039108 	4935 	0.038990
41.91 	0.041937 	4936 	0.041205
41.95 	0.038937 	4931 	0.037987
41.99 	0.037105 	4905 	0.036747
42.03 	0.044138 	4939 	0.043783
42.07 	0.043954 	4937 	0.043479
42.11 	0.042063 	4945 	0.041470
42.15 	0.038680 	4938 	0.038561
42.19 	0.040342 	4908 	0.039865
42.23 	0.040679 	4892 	0.040200
42.27 	0.035905 	4874 	0.035424
42.31 	0.035633 	4855 	0.035271
42.35 	0.036999 	4838 	0.036757
42.39 	0.040591 	4804 	0.040225
42.43 	0.041736 	4792 	0.041247
42.47 	0.038405 	4765 	0.038159
42.51 	0.048493 	4743 	0.047998
42.55 	0.040144 	4708 	0.039647
42.59 	0.042081 	4729 	0.041709
42.63 	0.038649 	4709 	0.038525
42.67 	0.044406 	4684 	0.044156
42.71 	0.041819 	4663 	0.041693
42.75 	0.041802 	4617 	0.041041
42.79 	0.039502 	4582 	0.039119
42.83 	0.039903 	4536 	0.039516
42.87 	0.045788 	4499 	0.045528
42.91 	0.037702 	4456 	0.037439
42.95 	0.036685 	4416 	0.036419
42.99 	0.035120 	4385 	0.034853
43.03 	0.039234 	4333 	0.038963
43.07 	0.039339 	4296 	0.039339
43.11 	0.043243 	4255 	0.042693
43.15 	0.040181 	4206 	0.040041
43.19 	0.039819 	4194 	0.039400
43.23 	0.041887 	4154 	0.040900
43.27 	0.037272 	4105 	0.037129
43.31 	0.039716 	4079 	0.038830
43.35 	0.034970 	4032 	0.034680
43.39 	0.044478 	4002 	0.044039
43.43 	0.038636 	3960 	0.038341
43.47 	0.037490 	3921 	0.037490
43.51 	0.043332 	3877 	0.042728
43.55 	0.035762 	2964 	0.035565
43.59 	0.040664 	1746 	0.038932
43.63 	0.039960 	1001 	0.038790
43.67 	0.039841 	502 	0.039841
43.71 	0.066946 	239 	0.064495
43.75 	0.000000 	16 	0.000000