File: Example_Data/25SC_s1_0009.004.dat
#F C:\frames\spec\25SC_s1_0009.004
#C title =s:9 frm:4 25SC_s1
#C wavelength =0.15406

#S 1  fr_average C:\frames\spec\25SC_s1_0009.004 C:\win32app\speccom\mask.axs chi 0 180 0 360 0.02
#C 2 theta =0.000000 to 180 deg
#C   q   =0.000000 to 81.568 nm^-1
#C  chi  =0.000000 to 360 deg
#C collumns:
#C  1 position (2theta or chi in degrees)
#C  2 average intensity (sum of all counts in the region divided with number of pixels)
#C  3 Number of pixels in region)
#C  4 error (sum of sqrt(intensity) for all pixels divided by number)
#N 4
#L TTh  Int  N_pix  Err
32.99 	0.098361 	61 	0.098361
33.03 	0.049605 	1391 	0.048341
33.07 	0.053171 	2050 	0.052313
33.11 	0.048081 	2579 	0.047399
33.15 	0.057019 	2999 	0.055847
33.19 	0.057151 	3342 	0.056450
33.23 	0.065853 	3523 	0.064523
33.27 	0.052617 	3630 	0.051972
33.31 	0.062842 	3660 	0.062041
33.35 	0.060368 	3694 	0.059417
33.39 	0.060070 	3729 	0.059441
33.43 	0.056102 	3761 	0.054830
33.47 	0.059505 	3798 	0.058580
33.51 	0.055832 	3815 	0.055372
33.55 	0.060630 	3843 	0.059868
33.59 	0.053093 	3880 	0.052489
33.63 	0.058433 	3919 	0.057686
33.67 	0.063227 	3954 	0.062190
33.71 	0.056101 	3975 	0.054897
33.75 	0.067517 	3999 	0.066345
33.79 	0.065083 	4041 	0.063923
33.83 	0.050864 	4050 	0.050141
33.87 	0.060326 	4111 	0.059329
33.91 	0.060497 	4149 	0.059649
33.95 	0.059077 	4181 	0.057956
33.99 	0.064524 	4200 	0.062688
34.03 	0.055372 	4244 	0.054682
34.07 	0.061387 	4268 	0.060564
34.11 	0.072060 	4302 	0.070426
34.15 	0.056107 	4331 	0.055431
34.19 	0.057084 	4362 	0.056144
34.23 	0.058047 	4393 	0.056692
34.27 	0.063320 	4422 	0.062260
34.31 	0.062360 	4458 	0.061309
34.35 	0.056423 	4484 	0.055378
34.39 	0.058641 	4502 	0.057990
34.43 	0.066314 	4539 	0.065024
34.47 	0.058145 	4592 	0.056997
34.51 	0.060139 	4606 	0.058740
34.55 	0.057075 	4643 	0.056571
34.59 	0.059679 	4675 	0.058802
34.63 	0.060085 	4710 	0.058966
34.67 	0.064121 	4741 	0.063009
34.71 	0.064834 	4766 	0.063974
34.75 	0.061772 	4808 	0.060534
34.79 	0.055348 	4824 	0.054984
34.83 	0.064171 	4862 	0.062966
34.87 	0.060189 	4868 	0.059086
34.91 	0.058378 	4882 	0.058018
34.95 	0.052965 	4890 	0.052486
34.99 	0.058812 	4897 	0.057496
35.03 	0.061501 	4943 	0.060435
35.07 	0.061538 	4940 	0.060570
35.11 	0.061047 	4947 	0.059863
35.15 	0.060563 	4937 	0.059970
35.19 	0.062525 	4942 	0.061340
35.23 	0.063498 	4945 	0.061347
35.27 	0.064066 	4948 	0.063238
35.31 	0.055950 	4933 	0.055356
35.35 	0.061514 	4942 	0.061158
35.39 	0.058443 	4945 	0.057377
35.43 	0.059396 	4933 	0.058208
35.47 	0.060231 	4931 	0.059518
35.51 	0.059480 	4926 	0.058886
35.55 	0.064510 	4945 	0.064036
35.59 	0.073003 	4945 	0.071226
35.63 	0.060692 	4943 	0.059013
35.67 	0.057467 	4942 	0.056518
35.71 	0.065627 	4937 	0.064084
35.75 	0.061245 	4931 	0.060295
35.79 	0.067721 	4932 	0.066415
35.83 	0.056005 	4946 	0.055176
35.87 	0.061548 	4923 	0.060100
35.91 	0.052162 	4927 	0.051448
35.95 	0.066097 	4917 	0.064291
35.99 	0.065600 	4939 	0.064533
36.03 	0.061703 	4943 	0.060736
36.07 	0.054667 	4939 	0.053362
36.11 	0.058227 	4929 	0.056682
36.15 	0.058311 	4939 	0.057837
36.19 	0.059514 	4940 	0.058566
36.23 	0.060385 	4935 	0.059554
36.27 	0.066802 	4925 	0.065732
36.31 	0.066356 	4928 	0.064691
36.35 	0.052749 	4929 	0.051541
36.39 	0.057712 	4921 	0.056760
36.43 	0.068791 	4928 	0.067126
36.47 	0.059765 	4936 	0.058578
36.51 	0.058788 	4933 	0.057937
36.55 	0.064948 	4927 	0.063878
36.59 	0.058716 	4939 	0.057649
36.63 	0.050497 	4931 	0.049665
36.67 	0.058012 	4930 	0.056943
36.71 	0.049177 	4921 	0.048463
36.75 	0.056028 	4944 	0.055317
36.79 	0.064621 	4921 	0.063193
36.83 	0.055544 	4915 	0.054829
36.87 	0.058455 	4944 	0.058336
36.91 	0.063752 	4941 	0.062804
36.95 	0.057774 	4933 	0.057062
36.99 	0.049240 	4935 	0.048884
37.03 	0.056052 	4924 	0.054862
37.07 	0.053293 	4935 	0.052581
37.11 	0.055724 	4935 	0.054993
37.15 	0.050519 	4909 	0.049784
37.19 	0.059492 	4925 	0.058303
37.23 	0.052460 	4918 	0.051746
37.27 	0.064160 	4894 	0.063063
37.31 	0.054914 	4935 	0.053945
37.35 	0.051033 	4938 	0.050084
37.39 	0.055567 	4931 	0.054498
37.43 	0.060219 	4932 	0.059269
37.47 	0.052952 	4929 	0.051982
37.51 	0.062639 	4933 	0.061432
37.55 	0.056592 	4930 	0.056117
37.59 	0.054730 	4915 	0.053161
37.63 	0.058142 	4919 	0.057546
37.67 	0.054445 	4904 	0.053012
37.71 	0.052546 	4929 	0.051595
37.75 	0.050607 	4940 	0.049659
37.79 	0.056998 	4930 	0.055810
37.83 	0.051626 	4920 	0.050793
37.87 	0.055679 	4939 	0.053743
37.91 	0.054361 	4930 	0.053529
37.95 	0.058525 	4921 	0.057572
37.99 	0.057410 	4912 	0.056576
38.03 	0.059279 	4909 	0.058563
38.07 	0.061927 	4909 	0.060972
38.11 	0.061601 	4935 	0.060889
38.15 	0.057340 	4918 	0.056507
38.19 	0.058012 	4930 	0.056468
38.23 	0.061968 	4938 	0.061019
38.27 	0.067546 	4930 	0.065605
38.31 	0.070022 	4927 	0.068596
38.35 	0.060268 	4928 	0.058723
38.39 	0.065798 	4909 	0.064724
38.43 	0.071806 	4916 	0.070714
38.47 	0.070715 	4907 	0.069283
38.51 	0.062044 	4932 	0.061331
38.55 	0.070300 	4936 	0.068638
38.59 	0.062957 	4924 	0.061886
38.63 	0.060317 	4924 	0.059841
38.67 	0.062994 	4937 	0.062045
38.71 	0.049553 	4924 	0.049196
38.75 	0.058250 	4927 	0.056943
38.79 	0.055128 	4934 	0.053940
38.83 	0.048994 	4919 	0.048279
38.87 	0.052535 	4911 	0.051939
38.91 	0.055068 	4903 	0.053874
38.95 	0.049817 	4918 	0.048983
38.99 	0.059348 	4937 	0.058636
39.03 	0.056546 	4934 	0.056190
39.07 	0.061738 	4924 	0.060549
39.11 	0.054350 	4931 	0.053875
39.15 	0.058393 	4915 	0.057678
39.19 	0.057962 	4917 	0.056771
39.23 	0.047716 	4925 	0.047121
39.27 	0.061303 	4910 	0.060230
39.31 	0.051392 	4884 	0.050193
39.35 	0.056130 	4935 	0.055279
39.39 	0.058024 	4929 	0.056835
39.43 	0.057977 	4933 	0.057502
39.47 	0.056673 	4923 	0.056078
39.51 	0.054833 	4924 	0.053882
39.55 	0.053669 	4919 	0.053193
39.59 	0.052728 	4912 	0.051774
39.63 	0.056481 	4922 	0.055767
39.67 	0.062487 	4913 	0.061295
39.71 	0.056588 	4895 	0.055511
39.75 	0.061080 	4928 	0.060010
39.79 	0.057653 	4926 	0.055988
39.83 	0.053709 	4934 	0.052403
39.87 	0.053401 	4925 	0.052687
39.91 	0.055262 	4922 	0.054290
39.95 	0.051679 	4915 	0.050725
39.99 	0.058597 	4932 	0.057647
40.03 	0.053774 	4928 	0.052942
40.07 	0.055454 	4923 	0.054621
40.11 	0.060415 	4916 	0.059581
40.15 	0.054142 	4913 	0.053546
40.19 	0.048489 	4929 	0.047657
40.23 	0.054745 	4932 	0.054032
40.27 	0.051043 	4937 	0.050094
40.31 	0.063373 	4939 	0.062424
40.35 	0.052246 	4919 	0.051770
40.39 	0.049888 	4931 	0.049294
40.43 	0.049980 	4922 	0.049028
40.47 	0.053680 	4918 	0.052847
40.51 	0.058310 	4922 	0.057715
40.55 	0.053382 	4908 	0.053024
40.59 	0.055702 	4937 	0.054753
40.63 	0.053144 	4930 	0.052550
40.67 	0.051095 	4932 	0.050026
40.71 	0.051500 	4932 	0.051025
40.75 	0.051511 	4931 	0.050679
40.79 	0.056052 	4924 	0.055219
40.83 	0.054586 	4928 	0.053635
40.87 	0.054180 	4928 	0.053110
40.91 	0.051391 	4923 	0.050440
40.95 	0.053735 	4913 	0.053139
40.99 	0.056052 	4924 	0.054862
41.03 	0.053007 	4905 	0.051693
41.07 	0.049899 	4930 	0.048829
41.11 	0.057751 	4935 	0.057039
41.15 	0.046549 	4941 	0.046194
41.19 	0.044828 	4930 	0.044115
41.23 	0.055274 	4939 	0.053713
41.27 	0.053133 	4931 	0.052064
41.31 	0.055139 	4933 	0.054051
41.35 	0.054678 	4938 	0.054322
41.39 	0.051490 	4933 	0.050421
41.43 	0.054575 	4929 	0.053505
41.47 	0.050345 	4926 	0.049493
41.51 	0.053846 	4940 	0.053135
41.55 	0.052685 	4935 	0.051379
41.59 	0.053720 	4933 	0.052651
41.63 	0.053463 	4938 	0.052158
41.67 	0.048988 	4940 	0.048395
41.71 	0.052088 	4934 	0.051731
41.75 	0.052343 	4929 	0.051393
41.79 	0.049150 	4944 	0.048203
41.83 	0.047484 	4928 	0.046889
41.87 	0.049443 	4935 	0.048374
41.91 	0.048015 	4936 	0.047659
41.95 	0.049483 	4931 	0.048889
41.99 	0.052396 	4905 	0.051798
42.03 	0.053250 	4939 	0.051826
42.07 	0.048815 	4937 	0.048222
42.11 	0.043680 	4945 	0.043562
42.15 	0.048603 	4938 	0.048365
42.19 	0.042584 	4908 	0.042225
42.23 	0.054579 	4892 	0.054100
42.27 	0.052113 	4874 	0.051272
42.31 	0.055201 	4855 	0.054356
42.35 	0.043613 	4838 	0.042887
42.39 	0.055371 	4804 	0.054273
42.43 	0.045492 	4792 	0.044881
42.47 	0.056034 	4765 	0.055542
42.51 	0.047227 	4743 	0.046466
42.55 	0.045030 	4708 	0.044532
42.59 	0.046099 	4729 	0.046099
42.63 	0.048418 	4709 	0.047547
42.67 	0.050811 	4684 	0.050311
42.71 	0.050611 	4663 	0.050109
42.75 	0.046350 	4617 	0.045082
42.79 	0.050415 	4582 	0.050031
42.83 	0.052690 	4536 	0.052044
42.87 	0.048455 	4499 	0.047804
42.91 	0.050045 	4456 	0.049256
42.95 	0.047328 	4416 	0.046797
42.99 	0.046750 	4385 	0.046216
43.03 	0.043388 	4333 	0.043118
43.07 	0.044693 	4296 	0.044147
43.11 	0.048649 	4255 	0.048236
43.15 	0.047551 	4206 	0.046715
43.19 	0.052694 	4194 	0.051856
43.23 	0.043091 	4154 	0.042809
43.27 	0.053350 	4105 	0.053207
43.31 	0.045599 	4079 	0.045456
43.35 	0.051835 	4032 	0.051399
43.39 	0.043228 	4002 	0.042497
43.43 	0.048232 	3960 	0.047641
43.47 	0.050242 	3921 	0.049645
43.51 	0.046428 	3877 	0.045823
43.55 	0.042173 	2964 	0.041580
43.59 	0.049255 	1746 	0.049255
43.63 	0.050949 	1001 	0.049779
43.67 	0.043825 	502 	0.043825
43.71 	0.058577 	239 	0.058577
43.75 	0.062500 	16 	0.062500