File: Example_Data/25SC_s1_0010.000.dat
#F C:\frames\spec\25SC_s1_0010.000
#C title =s:10 frm:0 25SC_s1
#C wavelength =0.15406

#S 1  fr_average C:\frames\spec\25SC_s1_0010.000 C:\win32app\speccom\mask.axs chi 0 180 0 360 0.02
#C 2 theta =0.000000 to 180 deg
#C   q   =0.000000 to 81.568 nm^-1
#C  chi  =0.000000 to 360 deg
#C collumns:
#C  1 position (2theta or chi in degrees)
#C  2 average intensity (sum of all counts in the region divided with number of pixels)
#C  3 Number of pixels in region)
#C  4 error (sum of sqrt(intensity) for all pixels divided by number)
#N 4
#L TTh  Int  N_pix  Err
32.99 	0.065574 	61 	0.065574
33.03 	0.066139 	1391 	0.064455
33.07 	0.065366 	2050 	0.063937
33.11 	0.059325 	2579 	0.059325
33.15 	0.056019 	2999 	0.054619
33.19 	0.062537 	3342 	0.061486
33.23 	0.060176 	3523 	0.059511
33.27 	0.058678 	3630 	0.056580
33.31 	0.062295 	3660 	0.060535
33.35 	0.058202 	3694 	0.057568
33.39 	0.064092 	3729 	0.063464
33.43 	0.057166 	3761 	0.055452
33.47 	0.057135 	3798 	0.055593
33.51 	0.057667 	3815 	0.056899
33.55 	0.053864 	3843 	0.053407
33.59 	0.059278 	3880 	0.057920
33.63 	0.052054 	3919 	0.050983
33.67 	0.068285 	3954 	0.067841
33.71 	0.061384 	3975 	0.060647
33.75 	0.056514 	3999 	0.055782
33.79 	0.053205 	4041 	0.052480
33.83 	0.054568 	4050 	0.053700
33.87 	0.064948 	4111 	0.063665
33.91 	0.066763 	4149 	0.065210
33.95 	0.060512 	4181 	0.059228
33.99 	0.055000 	4200 	0.053745
34.03 	0.059614 	4244 	0.058371
34.07 	0.056701 	4268 	0.055580
34.11 	0.053696 	4302 	0.053015
34.15 	0.052644 	4331 	0.051967
34.19 	0.054104 	4362 	0.053432
34.23 	0.062827 	4393 	0.062160
34.27 	0.054953 	4422 	0.054423
34.31 	0.063930 	4458 	0.062747
34.35 	0.059991 	4484 	0.058946
34.39 	0.056864 	4502 	0.055823
34.43 	0.061247 	4539 	0.060215
34.47 	0.055749 	4592 	0.055366
34.51 	0.057968 	4606 	0.057078
34.55 	0.057721 	4643 	0.057090
34.59 	0.054118 	4675 	0.053366
34.63 	0.047771 	4710 	0.047398
34.67 	0.058005 	4741 	0.056028
34.71 	0.058959 	4766 	0.057587
34.75 	0.061148 	4808 	0.060539
34.79 	0.060116 	4824 	0.059509
34.83 	0.055533 	4862 	0.054328
34.87 	0.059984 	4868 	0.059001
34.91 	0.060836 	4882 	0.059276
34.95 	0.054806 	4890 	0.054327
34.99 	0.058812 	4897 	0.057256
35.03 	0.058264 	4943 	0.057435
35.07 	0.051619 	4940 	0.051264
35.11 	0.065494 	4947 	0.064073
35.15 	0.058740 	4937 	0.057910
35.19 	0.050789 	4942 	0.050434
35.23 	0.061072 	4945 	0.059769
35.27 	0.058205 	4948 	0.057258
35.31 	0.056558 	4933 	0.055707
35.35 	0.057062 	4942 	0.056351
35.39 	0.060870 	4945 	0.060159
35.43 	0.061018 	4933 	0.059811
35.47 	0.053336 	4931 	0.052504
35.51 	0.056029 	4926 	0.055078
35.55 	0.055814 	4945 	0.054491
35.59 	0.062083 	4945 	0.060780
35.63 	0.053207 	4943 	0.052496
35.67 	0.058883 	4942 	0.057797
35.71 	0.058538 	4937 	0.057707
35.75 	0.055770 	4931 	0.054582
35.79 	0.058394 	4932 	0.057563
35.83 	0.059240 	4946 	0.058292
35.87 	0.062360 	4923 	0.061408
35.91 	0.058656 	4927 	0.057586
35.95 	0.057555 	4917 	0.056721
35.99 	0.063778 	4939 	0.062454
36.03 	0.061703 	4943 	0.060755
36.07 	0.061753 	4939 	0.060429
36.11 	0.059241 	4929 	0.058053
36.15 	0.066410 	4939 	0.064987
36.19 	0.053441 	4940 	0.052848
36.23 	0.059574 	4935 	0.058269
36.27 	0.063756 	4925 	0.062805
36.31 	0.059050 	4928 	0.058099
36.35 	0.064110 	4929 	0.063397
36.39 	0.067466 	4921 	0.066752
36.43 	0.064732 	4928 	0.064138
36.47 	0.058752 	4936 	0.056972
36.51 	0.060612 	4933 	0.059405
36.55 	0.053176 	4927 	0.052344
36.59 	0.060336 	4939 	0.059269
36.63 	0.057595 	4931 	0.057001
36.67 	0.060243 	4930 	0.059055
36.71 	0.061370 	4921 	0.059941
36.75 	0.058050 	4944 	0.057576
36.79 	0.062386 	4921 	0.061076
36.83 	0.065107 	4915 	0.063796
36.87 	0.058657 	4944 	0.058183
36.91 	0.066181 	4941 	0.065232
36.95 	0.059801 	4933 	0.058970
36.99 	0.055522 	4935 	0.054572
37.03 	0.056458 	4924 	0.055269
37.07 	0.057953 	4935 	0.056628
37.11 	0.062614 	4935 	0.061190
37.15 	0.054390 	4909 	0.053674
37.19 	0.056447 	4925 	0.055257
37.23 	0.055917 	4918 	0.054726
37.27 	0.058643 	4894 	0.057566
37.31 	0.061803 	4935 	0.060735
37.35 	0.053868 	4938 	0.053156
37.39 	0.058406 	4931 	0.057337
37.43 	0.060624 	4932 	0.059080
37.47 	0.048286 	4929 	0.048048
37.51 	0.061423 	4933 	0.060473
37.55 	0.063286 	4930 	0.062811
37.59 	0.056765 	4915 	0.055931
37.63 	0.057125 	4919 	0.056173
37.67 	0.063010 	4904 	0.061935
37.71 	0.058227 	4929 	0.056306
37.75 	0.060931 	4940 	0.059844
37.79 	0.058621 	4930 	0.058027
37.83 	0.063821 	4920 	0.061639
37.87 	0.063576 	4939 	0.062983
37.91 	0.052535 	4930 	0.051466
37.95 	0.061166 	4921 	0.060095
37.99 	0.052524 	4912 	0.051809
38.03 	0.060094 	4909 	0.059378
38.07 	0.057649 	4909 	0.056695
38.11 	0.058156 	4935 	0.056732
38.15 	0.058357 	4918 	0.057523
38.19 	0.061866 	4930 	0.060916
38.23 	0.063994 	4938 	0.062807
38.27 	0.060649 	4930 	0.059342
38.31 	0.052365 	4927 	0.051889
38.35 	0.065138 	4928 	0.064187
38.39 	0.060501 	4909 	0.059785
38.43 	0.062653 	4916 	0.061223
38.47 	0.070308 	4907 	0.069114
38.51 	0.069140 	4932 	0.068071
38.55 	0.069692 	4936 	0.068387
38.59 	0.075548 	4924 	0.074002
38.63 	0.078595 	4924 	0.076929
38.67 	0.085274 	4937 	0.083337
38.71 	0.086109 	4924 	0.084205
38.75 	0.079562 	4927 	0.077422
38.79 	0.081678 	4934 	0.078691
38.83 	0.070543 	4919 	0.068698
38.87 	0.082061 	4911 	0.079636
38.91 	0.068326 	4903 	0.066892
38.95 	0.065677 	4918 	0.064129
38.99 	0.059753 	4937 	0.058922
39.03 	0.055128 	4934 	0.054534
39.07 	0.054021 	4924 	0.052950
39.11 	0.051511 	4931 	0.050422
39.15 	0.045982 	4915 	0.045267
39.19 	0.047590 	4917 	0.046379
39.23 	0.051574 	4925 	0.050741
39.27 	0.046843 	4910 	0.046127
39.31 	0.049345 	4884 	0.048505
39.35 	0.051266 	4935 	0.050554
39.39 	0.045648 	4929 	0.045054
39.43 	0.047436 	4933 	0.046842
39.47 	0.041844 	4923 	0.041606
39.51 	0.048132 	4924 	0.047041
39.55 	0.042488 	4919 	0.042131
39.59 	0.041735 	4912 	0.041258
39.63 	0.044494 	4922 	0.043780
39.67 	0.043151 	4913 	0.042793
39.71 	0.046782 	4895 	0.045945
39.75 	0.047484 	4928 	0.046414
39.79 	0.046285 	4926 	0.045314
39.83 	0.045602 	4934 	0.045364
39.87 	0.038985 	4925 	0.038628
39.91 	0.043478 	4922 	0.042883
39.95 	0.041302 	4915 	0.040587
39.99 	0.042985 	4932 	0.042252
40.03 	0.043425 	4928 	0.042831
40.07 	0.044891 	4923 	0.044296
40.11 	0.044345 	4916 	0.044107
40.15 	0.043558 	4913 	0.042962
40.19 	0.044634 	4929 	0.044277
40.23 	0.043187 	4932 	0.042950
40.27 	0.040916 	4937 	0.040560
40.31 	0.043329 	4939 	0.042973
40.35 	0.046351 	4919 	0.045398
40.39 	0.049888 	4931 	0.048819
40.43 	0.039415 	4922 	0.039058
40.47 	0.041887 	4918 	0.041411
40.51 	0.041853 	4922 	0.041615
40.55 	0.039120 	4908 	0.039120
40.59 	0.046182 	4937 	0.045450
40.63 	0.043813 	4930 	0.043695
40.67 	0.044809 	4932 	0.044077
40.71 	0.041565 	4932 	0.041090
40.75 	0.043805 	4931 	0.043211
40.79 	0.042445 	4924 	0.041731
40.83 	0.044643 	4928 	0.043811
40.87 	0.042411 	4928 	0.042054
40.91 	0.048345 	4923 	0.047393
40.95 	0.045390 	4913 	0.044794
40.99 	0.044273 	4924 	0.043559
41.03 	0.043425 	4905 	0.042947
41.07 	0.047667 	4930 	0.046954
41.11 	0.038906 	4935 	0.038075
41.15 	0.042704 	4941 	0.042704
41.19 	0.038540 	4930 	0.038064
41.23 	0.041101 	4939 	0.040390
41.27 	0.041777 	4931 	0.041183
41.31 	0.036286 	4933 	0.035811
41.35 	0.041717 	4938 	0.041243
41.39 	0.043584 	4933 	0.042990
41.43 	0.043417 	4929 	0.042703
41.47 	0.041210 	4926 	0.040734
41.51 	0.044737 	4940 	0.044381
41.55 	0.041743 	4935 	0.041268
41.59 	0.033043 	4933 	0.032924
41.63 	0.043135 	4938 	0.042898
41.67 	0.041903 	4940 	0.041666
41.71 	0.044183 	4934 	0.043233
41.75 	0.044431 	4929 	0.043718
41.79 	0.040453 	4944 	0.040216
41.83 	0.037541 	4928 	0.037303
41.87 	0.042958 	4935 	0.042840
41.91 	0.042545 	4936 	0.042426
41.95 	0.038937 	4931 	0.038700
41.99 	0.044037 	4905 	0.043678
42.03 	0.041304 	4939 	0.041067
42.07 	0.043549 	4937 	0.042837
42.11 	0.034985 	4945 	0.034393
42.15 	0.039085 	4938 	0.038492
42.19 	0.040546 	4908 	0.039949
42.23 	0.039043 	4892 	0.038445
42.27 	0.040829 	4874 	0.039747
42.31 	0.043048 	4855 	0.042445
42.35 	0.037826 	4838 	0.037462
42.39 	0.039342 	4804 	0.038591
42.43 	0.040067 	4792 	0.039945
42.47 	0.040504 	4765 	0.040381
42.51 	0.038583 	4743 	0.037719
42.55 	0.045455 	4708 	0.044957
42.59 	0.039543 	4729 	0.039048
42.63 	0.039286 	4709 	0.038913
42.67 	0.037148 	4684 	0.036898
42.71 	0.038816 	4663 	0.038565
42.75 	0.031406 	4617 	0.031279
42.79 	0.035137 	4582 	0.034498
42.83 	0.039683 	4536 	0.039424
42.87 	0.040676 	4499 	0.040415
42.91 	0.034111 	4456 	0.033717
42.95 	0.038723 	4416 	0.038060
42.99 	0.038312 	4385 	0.038045
43.03 	0.036464 	4333 	0.035788
43.07 	0.039804 	4296 	0.039668
43.11 	0.041363 	4255 	0.040675
43.15 	0.039943 	4206 	0.039525
43.19 	0.036481 	4194 	0.036201
43.23 	0.039239 	4154 	0.038957
43.27 	0.038977 	4105 	0.038977
43.31 	0.033096 	4079 	0.032666
43.35 	0.039187 	4032 	0.038751
43.39 	0.035982 	4002 	0.035543
43.43 	0.038384 	3960 	0.038088
43.47 	0.039786 	3921 	0.039188
43.51 	0.042301 	3877 	0.041243
43.55 	0.035762 	2964 	0.035565
43.59 	0.031501 	1746 	0.031501
43.63 	0.034965 	1001 	0.034965
43.67 	0.043825 	502 	0.043825
43.71 	0.037657 	239 	0.032352
43.75 	0.062500 	16 	0.062500