File: Example_Data/25SC_s1_0025.000.dat
#F C:\frames\spec\25SC_s1_0025.000
#C title =s:25 frm:0 25SC_s1
#C wavelength =0.15406

#S 1  fr_average C:\frames\spec\25SC_s1_0025.000 C:\win32app\speccom\mask.axs chi 0 180 0 360 0.02
#C 2 theta =0.000000 to 180 deg
#C   q   =0.000000 to 81.568 nm^-1
#C  chi  =0.000000 to 360 deg
#C collumns:
#C  1 position (2theta or chi in degrees)
#C  2 average intensity (sum of all counts in the region divided with number of pixels)
#C  3 Number of pixels in region)
#C  4 error (sum of sqrt(intensity) for all pixels divided by number)
#N 4
#L TTh  Int  N_pix  Err
32.99 	0.065574 	61 	0.065574
33.03 	0.049605 	1391 	0.048341
33.07 	0.056098 	2050 	0.055240
33.11 	0.072509 	2579 	0.070919
33.15 	0.060020 	2999 	0.059239
33.19 	0.061341 	3342 	0.060114
33.23 	0.053931 	3523 	0.053100
33.27 	0.061983 	3630 	0.060047
33.31 	0.068306 	3660 	0.066706
33.35 	0.065241 	3694 	0.064448
33.39 	0.056047 	3729 	0.055262
33.43 	0.057963 	3761 	0.056562
33.47 	0.066877 	3798 	0.065026
33.51 	0.059764 	3815 	0.058382
33.55 	0.054124 	3843 	0.053210
33.59 	0.058505 	3880 	0.057122
33.63 	0.060730 	3919 	0.059833
33.67 	0.058422 	3954 	0.057237
33.71 	0.063648 	3975 	0.063058
33.75 	0.062266 	3999 	0.061680
33.79 	0.063351 	4041 	0.062312
33.83 	0.052593 	4050 	0.051146
33.87 	0.058623 	4111 	0.057911
33.91 	0.061220 	4149 	0.060372
33.95 	0.060273 	4181 	0.059012
33.99 	0.063095 	4200 	0.061701
34.03 	0.057022 	4244 	0.054929
34.07 	0.060918 	4268 	0.060095
34.11 	0.063924 	4302 	0.063243
34.15 	0.053567 	4331 	0.053162
34.19 	0.062127 	4362 	0.061187
34.23 	0.053949 	4393 	0.053016
34.27 	0.054953 	4422 	0.053738
34.31 	0.055855 	4458 	0.055066
34.35 	0.060883 	4484 	0.060361
34.39 	0.050866 	4502 	0.050216
34.43 	0.047588 	4539 	0.047329
34.47 	0.064460 	4592 	0.063163
34.51 	0.060573 	4606 	0.059556
34.55 	0.059875 	4643 	0.058214
34.59 	0.058396 	4675 	0.057895
34.63 	0.059236 	4710 	0.058116
34.67 	0.060536 	4741 	0.059671
34.71 	0.055392 	4766 	0.054266
34.75 	0.062812 	4808 	0.061715
34.79 	0.059494 	4824 	0.058766
34.83 	0.054504 	4862 	0.053902
34.87 	0.060600 	4868 	0.059637
34.91 	0.053257 	4882 	0.052417
34.95 	0.051534 	4890 	0.050815
34.99 	0.057586 	4897 	0.056510
35.03 	0.056646 	4943 	0.056290
35.07 	0.057895 	4940 	0.056590
35.11 	0.057611 	4947 	0.056900
35.15 	0.053271 	4937 	0.052322
35.19 	0.057669 	4942 	0.057076
35.23 	0.061678 	4945 	0.060731
35.27 	0.058003 	4948 	0.057293
35.31 	0.057166 	4933 	0.056315
35.35 	0.059288 	4942 	0.058458
35.39 	0.059858 	4945 	0.059385
35.43 	0.065275 	4933 	0.064325
35.47 	0.053133 	4931 	0.051826
35.51 	0.056841 	4926 	0.055989
35.55 	0.054196 	4945 	0.053367
35.59 	0.057432 	4945 	0.056603
35.63 	0.054623 	4943 	0.054030
35.67 	0.056050 	4942 	0.054983
35.71 	0.059348 	4937 	0.058992
35.75 	0.064287 	4931 	0.063456
35.79 	0.059611 	4932 	0.058661
35.83 	0.059038 	4946 	0.058090
35.87 	0.057282 	4923 	0.056211
35.91 	0.053582 	4927 	0.052869
35.95 	0.054098 	4917 	0.053621
35.99 	0.054869 	4939 	0.054276
36.03 	0.055230 	4943 	0.054756
36.07 	0.051832 	4939 	0.051121
36.11 	0.064313 	4929 	0.063244
36.15 	0.061146 	4939 	0.060553
36.19 	0.056275 	4940 	0.055564
36.23 	0.055117 	4935 	0.054404
36.27 	0.058883 	4925 	0.057099
36.31 	0.062703 	4928 	0.061990
36.35 	0.052952 	4929 	0.052358
36.39 	0.057305 	4921 	0.055738
36.43 	0.055398 	4928 	0.053971
36.47 	0.057131 	4936 	0.056657
36.51 	0.057977 	4933 	0.056789
36.55 	0.050944 	4927 	0.050706
36.59 	0.054869 	4939 	0.054039
36.63 	0.055770 	4931 	0.054344
36.67 	0.056795 	4930 	0.055963
36.71 	0.060963 	4921 	0.059654
36.75 	0.062298 	4944 	0.060876
36.79 	0.059338 	4921 	0.058028
36.83 	0.058189 	4915 	0.056997
36.87 	0.048746 	4944 	0.048154
36.91 	0.061324 	4941 	0.060375
36.95 	0.063653 	4933 	0.062584
36.99 	0.059777 	4935 	0.058590
37.03 	0.056864 	4924 	0.055794
37.07 	0.055522 	4935 	0.054453
37.11 	0.063830 	4935 	0.062761
37.15 	0.064575 	4909 	0.063621
37.19 	0.058883 	4925 	0.058051
37.23 	0.056730 	4918 	0.056254
37.27 	0.060074 	4894 	0.059236
37.31 	0.061601 	4935 	0.060295
37.35 	0.054881 	4938 	0.054525
37.39 	0.062462 	4931 	0.060779
37.43 	0.064477 	4932 	0.063052
37.47 	0.054575 	4929 	0.054100
37.51 	0.065680 	4933 	0.064611
37.55 	0.057201 	4930 	0.056250
37.59 	0.052289 	4915 	0.052051
37.63 	0.062004 	4919 	0.060695
37.67 	0.056077 	4904 	0.054952
37.71 	0.057212 	4929 	0.056618
37.75 	0.057085 	4940 	0.055880
37.79 	0.050710 	4930 	0.049403
37.83 	0.054472 	4920 	0.053757
37.87 	0.059931 	4939 	0.059101
37.91 	0.058215 	4930 	0.057146
37.95 	0.058321 	4921 	0.057845
37.99 	0.057207 	4912 	0.055995
38.03 	0.055205 	4909 	0.054727
38.07 	0.056631 	4909 	0.055418
38.11 	0.054306 	4935 	0.053594
38.15 	0.056527 	4918 	0.055812
38.19 	0.063083 	4930 	0.061757
38.23 	0.063386 	4938 	0.062062
38.27 	0.062272 	4930 	0.061084
38.31 	0.067181 	4927 	0.066230
38.35 	0.063920 	4928 	0.062019
38.39 	0.073742 	4909 	0.072072
38.43 	0.070993 	4916 	0.068947
38.47 	0.077237 	4907 	0.075049
38.51 	0.078670 	4932 	0.077344
38.55 	0.078201 	4936 	0.076283
38.59 	0.082047 	4924 	0.080738
38.63 	0.084484 	4924 	0.082819
38.67 	0.085072 	4937 	0.083055
38.71 	0.080219 	4924 	0.077920
38.75 	0.068805 	4927 	0.067596
38.79 	0.069518 	4934 	0.068093
38.83 	0.068103 	4919 	0.067270
38.87 	0.054979 	4911 	0.053766
38.91 	0.055476 	4903 	0.054759
38.95 	0.059984 	4918 	0.058912
38.99 	0.048005 	4937 	0.047768
39.03 	0.044183 	4934 	0.043233
39.07 	0.050975 	4924 	0.050261
39.11 	0.047252 	4931 	0.046777
39.15 	0.048220 	4915 	0.047743
39.19 	0.046980 	4917 	0.046861
39.23 	0.045076 	4925 	0.044006
39.27 	0.045825 	4910 	0.045348
39.31 	0.050369 	4884 	0.049649
39.35 	0.048632 	4935 	0.048039
39.39 	0.047271 	4929 	0.046202
39.43 	0.052504 	4933 	0.052147
39.47 	0.048751 	4923 	0.048394
39.51 	0.043461 	4924 	0.042985
39.55 	0.041878 	4919 	0.041045
39.59 	0.043363 	4912 	0.043005
39.63 	0.046932 	4922 	0.046099
39.67 	0.052921 	4913 	0.051729
39.71 	0.045965 	4895 	0.045367
39.75 	0.045860 	4928 	0.045147
39.79 	0.046082 	4926 	0.045250
39.83 	0.044994 	4934 	0.044638
39.87 	0.048934 	4925 	0.048339
39.91 	0.042462 	4922 	0.041986
39.95 	0.046796 	4915 	0.046180
39.99 	0.048459 	4932 	0.047746
40.03 	0.047890 	4928 	0.047176
40.07 	0.043876 	4923 	0.042547
40.11 	0.049024 	4916 	0.048547
40.15 	0.041115 	4913 	0.040638
40.19 	0.042605 	4929 	0.042248
40.23 	0.040146 	4932 	0.039908
40.27 	0.044156 	4937 	0.043188
40.31 	0.044138 	4939 	0.043170
40.35 	0.041675 	4919 	0.041318
40.39 	0.046644 	4931 	0.045575
40.43 	0.044088 	4922 	0.043493
40.47 	0.044124 	4918 	0.043290
40.51 	0.042462 	4922 	0.041867
40.55 	0.041769 	4908 	0.041291
40.59 	0.046182 	4937 	0.045707
40.63 	0.038742 	4930 	0.038148
40.67 	0.044201 	4932 	0.043707
40.71 	0.048865 	4932 	0.048746
40.75 	0.046644 	4931 	0.045812
40.79 	0.042445 	4924 	0.041612
40.83 	0.039164 	4928 	0.038807
40.87 	0.042208 	4928 	0.041851
40.91 	0.045704 	4923 	0.045347
40.95 	0.042337 	4913 	0.041740
40.99 	0.042648 	4924 	0.041815
41.03 	0.038328 	4905 	0.037731
41.07 	0.040365 	4930 	0.040127
41.11 	0.043566 	4935 	0.042953
41.15 	0.036227 	4941 	0.035635
41.19 	0.045639 	4930 	0.044926
41.23 	0.041911 	4939 	0.041318
41.27 	0.042791 	4931 	0.042177
41.31 	0.040949 	4933 	0.040474
41.35 	0.040502 	4938 	0.040265
41.39 	0.042773 	4933 	0.042536
41.43 	0.040373 	4929 	0.040017
41.47 	0.038368 	4926 	0.038011
41.51 	0.039676 	4940 	0.039320
41.55 	0.042958 	4935 	0.042365
41.59 	0.042570 	4933 	0.042333
41.63 	0.043540 	4938 	0.043303
41.67 	0.036437 	4940 	0.036200
41.71 	0.041143 	4934 	0.040312
41.75 	0.037330 	4929 	0.036855
41.79 	0.044094 	4944 	0.043027
41.83 	0.038555 	4928 	0.038317
41.87 	0.037690 	4935 	0.037571
41.91 	0.040316 	4936 	0.039466
41.95 	0.044210 	4931 	0.043379
41.99 	0.043833 	4905 	0.043475
42.03 	0.043936 	4939 	0.043106
42.07 	0.034839 	4937 	0.034483
42.11 	0.041860 	4945 	0.041624
42.15 	0.039287 	4938 	0.038694
42.19 	0.041157 	4908 	0.040680
42.23 	0.041087 	4892 	0.040848
42.27 	0.042470 	4874 	0.042230
42.31 	0.039753 	4855 	0.039270
42.35 	0.042166 	4838 	0.041440
42.39 	0.041216 	4804 	0.040972
42.43 	0.040902 	4792 	0.040657
42.47 	0.036097 	4765 	0.035851
42.51 	0.039427 	4743 	0.038809
42.55 	0.043118 	4708 	0.042496
42.59 	0.041023 	4729 	0.040156
42.63 	0.037800 	4709 	0.037551
42.67 	0.034159 	4684 	0.033659
42.71 	0.039888 	4663 	0.039888
42.75 	0.040286 	4617 	0.039778
42.79 	0.040594 	4582 	0.040189
42.83 	0.036376 	4536 	0.035730
42.87 	0.038008 	4499 	0.037097
42.91 	0.043537 	4456 	0.043011
42.95 	0.037138 	4416 	0.036342
42.99 	0.035804 	4385 	0.035804
43.03 	0.034387 	4333 	0.034117
43.07 	0.043296 	4296 	0.042478
43.11 	0.041598 	4255 	0.041047
43.15 	0.039230 	4206 	0.038951
43.19 	0.038865 	4194 	0.038865
43.23 	0.040924 	4154 	0.040501
43.27 	0.038490 	4105 	0.038204
43.31 	0.039961 	4079 	0.039674
43.35 	0.035218 	4032 	0.034637
43.39 	0.034733 	4002 	0.034294
43.43 	0.037121 	3960 	0.036530
43.47 	0.035960 	3921 	0.035213
43.51 	0.044106 	3877 	0.043502
43.55 	0.037787 	2964 	0.037589
43.59 	0.030928 	1746 	0.030592
43.63 	0.037962 	1001 	0.036792
43.67 	0.029880 	502 	0.029880
43.71 	0.046025 	239 	0.046025
43.75 	0.062500 	16 	0.062500