File: Example_Data/25SC_s1_0048.001.dat
#F C:\frames\spec\25SC_s1_0048.001
#C title =s:48 frm:1 25SC_s1
#C wavelength =0.15406

#S 1  fr_average C:\frames\spec\25SC_s1_0048.001 C:\win32app\speccom\mask.axs chi 0 180 0 360 0.02
#C 2 theta =0.000000 to 180 deg
#C   q   =0.000000 to 81.568 nm^-1
#C  chi  =0.000000 to 360 deg
#C collumns:
#C  1 position (2theta or chi in degrees)
#C  2 average intensity (sum of all counts in the region divided with number of pixels)
#C  3 Number of pixels in region)
#C  4 error (sum of sqrt(intensity) for all pixels divided by number)
#N 4
#L TTh  Int  N_pix  Err
32.99 	0.032787 	61 	0.032787
33.03 	0.066858 	1391 	0.065595
33.07 	0.057561 	2050 	0.056132
33.11 	0.053509 	2579 	0.052828
33.15 	0.064688 	2999 	0.063516
33.19 	0.064034 	3342 	0.063157
33.23 	0.053931 	3523 	0.053100
33.27 	0.049587 	3630 	0.049264
33.31 	0.062022 	3660 	0.061062
33.35 	0.062263 	3694 	0.061470
33.39 	0.063288 	3729 	0.062816
33.43 	0.058495 	3761 	0.058028
33.47 	0.057399 	3798 	0.056627
33.51 	0.055046 	3815 	0.054125
33.55 	0.056987 	3843 	0.056072
33.59 	0.058763 	3880 	0.057706
33.63 	0.056902 	3919 	0.056603
33.67 	0.061457 	3954 	0.059827
33.71 	0.060629 	3975 	0.059892
33.75 	0.058515 	3999 	0.057782
33.79 	0.061371 	4041 	0.059921
33.83 	0.061728 	4050 	0.061005
33.87 	0.058623 	4111 	0.058053
33.91 	0.060014 	4149 	0.058438
33.95 	0.067448 	4181 	0.066747
33.99 	0.054048 	4200 	0.052932
34.03 	0.061499 	4244 	0.060118
34.07 	0.062793 	4268 	0.061832
34.11 	0.055323 	4302 	0.054234
34.15 	0.063727 	4331 	0.062622
34.19 	0.052957 	4362 	0.051480
34.23 	0.061461 	4393 	0.060928
34.27 	0.063772 	4422 	0.062712
34.31 	0.056079 	4458 	0.055159
34.35 	0.057761 	4484 	0.056455
34.39 	0.054642 	4502 	0.053732
34.43 	0.058383 	4539 	0.056963
34.47 	0.057491 	4592 	0.056598
34.51 	0.058836 	4606 	0.057523
34.55 	0.056214 	4643 	0.054553
34.59 	0.060107 	4675 	0.058854
34.63 	0.057537 	4710 	0.056667
34.67 	0.052099 	4741 	0.051604
34.71 	0.055183 	4766 	0.054814
34.75 	0.056988 	4808 	0.056501
34.79 	0.064677 	4824 	0.063584
34.83 	0.056767 	4862 	0.056164
34.87 	0.054232 	4868 	0.053269
34.91 	0.051004 	4882 	0.049684
34.95 	0.059918 	4890 	0.058600
34.99 	0.060649 	4897 	0.059553
35.03 	0.054218 	4943 	0.053744
35.07 	0.054453 	4940 	0.053367
35.11 	0.060036 	4947 	0.059207
35.15 	0.052866 	4937 	0.052273
35.19 	0.053217 	4942 	0.052012
35.23 	0.060870 	4945 	0.059922
35.27 	0.057397 	4948 	0.056312
35.31 	0.057166 	4933 	0.056078
35.35 	0.055443 	4942 	0.054357
35.39 	0.058241 	4945 	0.057037
35.43 	0.057369 	4933 	0.055687
35.47 	0.058406 	4931 	0.057574
35.51 	0.052172 	4926 	0.051201
35.55 	0.052376 	4945 	0.051192
35.59 	0.058645 	4945 	0.057224
35.63 	0.051588 	4943 	0.050759
35.67 	0.060299 	4942 	0.059470
35.71 	0.055094 	4937 	0.054620
35.75 	0.060231 	4931 	0.058687
35.79 	0.050689 	4932 	0.050096
35.83 	0.056207 	4946 	0.055378
35.87 	0.055860 	4923 	0.054313
35.91 	0.050132 	4927 	0.049656
35.95 	0.054708 	4917 	0.053993
35.99 	0.066208 	4939 	0.065733
36.03 	0.059073 	4943 	0.058125
36.07 	0.058716 	4939 	0.057886
36.11 	0.055386 	4929 	0.054079
36.15 	0.059526 	4939 	0.057866
36.19 	0.056073 	4940 	0.054749
36.23 	0.057953 	4935 	0.056766
36.27 	0.059898 	4925 	0.059066
36.31 	0.058036 	4928 	0.056966
36.35 	0.057212 	4929 	0.056737
36.39 	0.058728 	4921 	0.057657
36.43 	0.051948 	4928 	0.051116
36.47 	0.059157 	4936 	0.058208
36.51 	0.058180 	4933 	0.057348
36.55 	0.055612 	4927 	0.054899
36.59 	0.061146 	4939 	0.060079
36.63 	0.060434 	4931 	0.059365
36.67 	0.053753 	4930 	0.052446
36.71 	0.058728 	4921 	0.057418
36.75 	0.052791 	4944 	0.052199
36.79 	0.061166 	4921 	0.059837
36.83 	0.053713 	4915 	0.053098
36.87 	0.057039 	4944 	0.056446
36.91 	0.061931 	4941 	0.061457
36.95 	0.058180 	4933 	0.057111
36.99 	0.053090 	4935 	0.052497
37.03 	0.060114 	4924 	0.059638
37.07 	0.061398 	4935 	0.060092
37.11 	0.051469 	4935 	0.050638
37.15 	0.053779 	4909 	0.053063
37.19 	0.055635 	4925 	0.054445
37.23 	0.051240 	4918 	0.050287
37.27 	0.059052 	4894 	0.057975
37.31 	0.054103 	4935 	0.053272
37.35 	0.054070 	4938 	0.052884
37.39 	0.056986 	4931 	0.056274
37.43 	0.053731 	4932 	0.052662
37.47 	0.054575 	4929 	0.053387
37.51 	0.063450 	4933 	0.062619
37.55 	0.058824 	4930 	0.057517
37.59 	0.059613 	4915 	0.058064
37.63 	0.054279 	4919 	0.053922
37.67 	0.064437 	4904 	0.063004
37.71 	0.056807 	4929 	0.056212
37.75 	0.051417 	4940 	0.050468
37.79 	0.049290 	4930 	0.048458
37.83 	0.057317 	4920 	0.056345
37.87 	0.052642 	4939 	0.051318
37.91 	0.054158 	4930 	0.053564
37.95 	0.056289 	4921 	0.054980
37.99 	0.048656 	4912 	0.047702
38.03 	0.056020 	4909 	0.055423
38.07 	0.061112 	4909 	0.059800
38.11 	0.054509 	4935 	0.053678
38.15 	0.061204 	4918 	0.060251
38.19 	0.061055 	4930 	0.060104
38.23 	0.059943 	4938 	0.058520
38.27 	0.060041 	4930 	0.059189
38.31 	0.069413 	4927 	0.068106
38.35 	0.073661 	4928 	0.071739
38.39 	0.071501 	4909 	0.070646
38.43 	0.080553 	4916 	0.078885
38.47 	0.072753 	4907 	0.071918
38.51 	0.067315 	4932 	0.066484
38.55 	0.075567 	4936 	0.074143
38.59 	0.068034 	4924 	0.066111
38.63 	0.061535 	4924 	0.060703
38.67 	0.068260 	4937 	0.066599
38.71 	0.054021 	4924 	0.053188
38.75 	0.057033 	4927 	0.056082
38.79 	0.054520 	4934 	0.053689
38.83 	0.054889 	4919 	0.053460
38.87 	0.051721 	4911 	0.050985
38.91 	0.052825 	4903 	0.052347
38.95 	0.048597 	4918 	0.048001
38.99 	0.047600 	4937 	0.047362
39.03 	0.047831 	4934 	0.047238
39.07 	0.045085 	4924 	0.044728
39.11 	0.043399 	4931 	0.043043
39.15 	0.047202 	4915 	0.046964
39.19 	0.052064 	4917 	0.051469
39.23 	0.051777 	4925 	0.051182
39.27 	0.047047 	4910 	0.046570
39.31 	0.040131 	4884 	0.039771
39.35 	0.047011 	4935 	0.046062
39.39 	0.041591 	4929 	0.040640
39.43 	0.046422 	4933 	0.045472
39.47 	0.042454 	4923 	0.041859
39.51 	0.044679 	4924 	0.044322
39.55 	0.040455 	4919 	0.040336
39.59 	0.049471 	4912 	0.048755
39.63 	0.048964 	4922 	0.048369
39.67 	0.044372 	4913 	0.043657
39.71 	0.043514 	4895 	0.042676
39.75 	0.042817 	4928 	0.042579
39.79 	0.045676 	4926 	0.045200
39.83 	0.044386 	4934 	0.043911
39.87 	0.050558 	4925 	0.049726
39.91 	0.041243 	4922 	0.040767
39.95 	0.043133 	4915 	0.042537
39.99 	0.040754 	4932 	0.040279
40.03 	0.043628 	4928 	0.042558
40.07 	0.045298 	4923 	0.044703
40.11 	0.046583 	4916 	0.045629
40.15 	0.043965 	4913 	0.043130
40.19 	0.041996 	4929 	0.041640
40.23 	0.037105 	4932 	0.036867
40.27 	0.039498 	4937 	0.039260
40.31 	0.041304 	4939 	0.040711
40.35 	0.042692 	4919 	0.042334
40.39 	0.036707 	4931 	0.036588
40.43 	0.046323 	4922 	0.045609
40.47 	0.045140 	4918 	0.044545
40.51 	0.040024 	4922 	0.039548
40.55 	0.043195 	4908 	0.042340
40.59 	0.048613 	4937 	0.047663
40.63 	0.041785 	4930 	0.041191
40.67 	0.042782 	4932 	0.042307
40.71 	0.040552 	4932 	0.039720
40.75 	0.043602 	4931 	0.042533
40.79 	0.047116 	4924 	0.046402
40.83 	0.041599 	4928 	0.041480
40.87 	0.042411 	4928 	0.042054
40.91 	0.038797 	4923 	0.038441
40.95 	0.040912 	4913 	0.040673
40.99 	0.043258 	4924 	0.042782
41.03 	0.046483 	4905 	0.046005
41.07 	0.037120 	4930 	0.036644
41.11 	0.040932 	4935 	0.040695
41.15 	0.043109 	4941 	0.042872
41.19 	0.039554 	4930 	0.038841
41.23 	0.042721 	4939 	0.042247
41.27 	0.039546 	4931 	0.038833
41.31 	0.041557 	4933 	0.041438
41.35 	0.040907 	4938 	0.040551
41.39 	0.042570 	4933 	0.042095
41.43 	0.043214 	4929 	0.042382
41.47 	0.033090 	4926 	0.032852
41.51 	0.036032 	4940 	0.035439
41.55 	0.044377 	4935 	0.044140
41.59 	0.037503 	4933 	0.037503
41.63 	0.044147 	4938 	0.043792
41.67 	0.035425 	4940 	0.035188
41.71 	0.041143 	4934 	0.040906
41.75 	0.040982 	4929 	0.040982
41.79 	0.036812 	4944 	0.036220
41.83 	0.040179 	4928 	0.040060
41.87 	0.042553 	4935 	0.042078
41.91 	0.044773 	4936 	0.044180
41.95 	0.035287 	4931 	0.035168
41.99 	0.036901 	4905 	0.036423
42.03 	0.038672 	4939 	0.038435
42.07 	0.038890 	4937 	0.038534
42.11 	0.037007 	4945 	0.036415
42.15 	0.036857 	4938 	0.036620
42.19 	0.039731 	4908 	0.039373
42.23 	0.035568 	4892 	0.034850
42.27 	0.037546 	4874 	0.037426
42.31 	0.037899 	4855 	0.037416
42.35 	0.037205 	4838 	0.036721
42.39 	0.034555 	4804 	0.034189
42.43 	0.040693 	4792 	0.040448
42.47 	0.038615 	4765 	0.038000
42.51 	0.039427 	4743 	0.039303
42.55 	0.037171 	4708 	0.036922
42.59 	0.038697 	4729 	0.038450
42.63 	0.041410 	4709 	0.040290
42.67 	0.035653 	4684 	0.035403
42.71 	0.035385 	4663 	0.035259
42.75 	0.041585 	4617 	0.040951
42.79 	0.035137 	4582 	0.035010
42.83 	0.039903 	4536 	0.039774
42.87 	0.034452 	4499 	0.034192
42.91 	0.036131 	4456 	0.035737
42.95 	0.042799 	4416 	0.042003
42.99 	0.036032 	4385 	0.035765
43.03 	0.036003 	4333 	0.035192
43.07 	0.039804 	4296 	0.039237
43.11 	0.035488 	4255 	0.034249
43.15 	0.039943 	4206 	0.039386
43.19 	0.036719 	4194 	0.036300
43.23 	0.040443 	4154 	0.040020
43.27 	0.032400 	4105 	0.032400
43.31 	0.032361 	4079 	0.031786
43.35 	0.033978 	4032 	0.033542
43.39 	0.034733 	4002 	0.034294
43.43 	0.036869 	3960 	0.036721
43.47 	0.034685 	3921 	0.034386
43.51 	0.035337 	3877 	0.035186
43.55 	0.038462 	2964 	0.038264
43.59 	0.036082 	1746 	0.035076
43.63 	0.042957 	1001 	0.042957
43.67 	0.045817 	502 	0.044650
43.71 	0.037657 	239 	0.037657
43.75 	0.000000 	16 	0.000000