File: Example_Data/25SC_s1_0044.004.dat
#F C:\frames\spec\25SC_s1_0044.004
#C title =s:44 frm:4 25SC_s1
#C wavelength =0.15406

#S 1  fr_average C:\frames\spec\25SC_s1_0044.004 C:\win32app\speccom\mask.axs chi 0 180 0 360 0.02
#C 2 theta =0.000000 to 180 deg
#C   q   =0.000000 to 81.568 nm^-1
#C  chi  =0.000000 to 360 deg
#C collumns:
#C  1 position (2theta or chi in degrees)
#C  2 average intensity (sum of all counts in the region divided with number of pixels)
#C  3 Number of pixels in region)
#C  4 error (sum of sqrt(intensity) for all pixels divided by number)
#N 4
#L TTh  Int  N_pix  Err
32.99 	0.049180 	61 	0.049180
33.03 	0.048886 	1391 	0.048043
33.07 	0.067317 	2050 	0.066460
33.11 	0.056611 	2579 	0.055211
33.15 	0.049350 	2999 	0.048764
33.19 	0.049671 	3342 	0.048970
33.23 	0.055067 	3523 	0.053903
33.27 	0.052617 	3630 	0.051810
33.31 	0.060109 	3660 	0.058989
33.35 	0.064970 	3694 	0.063702
33.39 	0.051757 	3729 	0.051285
33.43 	0.061154 	3761 	0.059596
33.47 	0.057925 	3798 	0.056846
33.51 	0.054260 	3815 	0.053799
33.55 	0.058028 	3843 	0.057113
33.59 	0.055928 	3880 	0.055324
33.63 	0.062261 	3919 	0.061065
33.67 	0.058422 	3954 	0.057089
33.71 	0.065157 	3975 	0.063831
33.75 	0.055014 	3999 	0.054721
33.79 	0.056917 	4041 	0.056192
33.83 	0.060494 	4050 	0.059192
33.87 	0.059110 	4111 	0.057685
33.91 	0.059291 	4149 	0.057880
33.95 	0.062425 	4181 	0.061445
33.99 	0.060476 	4200 	0.058803
34.03 	0.066682 	4244 	0.065854
34.07 	0.060450 	4268 	0.059626
34.11 	0.056950 	4302 	0.055725
34.15 	0.060494 	4331 	0.059683
34.19 	0.061669 	4362 	0.060326
34.23 	0.063282 	4393 	0.061260
34.27 	0.054726 	4422 	0.054064
34.31 	0.052041 	4458 	0.051778
34.35 	0.063782 	4484 	0.062999
34.39 	0.056419 	4502 	0.055639
34.43 	0.061027 	4539 	0.059865
34.47 	0.055967 	4592 	0.054946
34.51 	0.059705 	4606 	0.059069
34.55 	0.059660 	4643 	0.059029
34.59 	0.059037 	4675 	0.058160
34.63 	0.057113 	4710 	0.056118
34.67 	0.057794 	4741 	0.057052
34.71 	0.058120 	4766 	0.057260
34.75 	0.056780 	4808 	0.056537
34.79 	0.056385 	4824 	0.055170
34.83 	0.060469 	4862 	0.059626
34.87 	0.058135 	4868 	0.057533
34.91 	0.052028 	4882 	0.051068
34.95 	0.066258 	4890 	0.065160
34.99 	0.057586 	4897 	0.056749
35.03 	0.057657 	4943 	0.056235
35.07 	0.055061 	4940 	0.054349
35.11 	0.054174 	4947 	0.053464
35.15 	0.049018 	4937 	0.048543
35.19 	0.061311 	4942 	0.060719
35.23 	0.066734 	4945 	0.065076
35.27 	0.066087 	4948 	0.064785
35.31 	0.054936 	4933 	0.054105
35.35 	0.057467 	4942 	0.056281
35.39 	0.059252 	4945 	0.058304
35.43 	0.054328 	4933 	0.053022
35.47 	0.059420 	4931 	0.057638
35.51 	0.054202 	4926 	0.053013
35.55 	0.060465 	4945 	0.059143
35.59 	0.057432 	4945 	0.056484
35.63 	0.060287 	4943 	0.058865
35.67 	0.059085 	4942 	0.057900
35.71 	0.061373 	4937 	0.060286
35.75 	0.060434 	4931 	0.059365
35.79 	0.069749 	4932 	0.067967
35.83 	0.057420 	4946 	0.055387
35.87 	0.053829 	4923 	0.052481
35.91 	0.056018 	4927 	0.055305
35.95 	0.058979 	4917 	0.057887
35.99 	0.056084 	4939 	0.055254
36.03 	0.058264 	4943 	0.057909
36.07 	0.057299 	4939 	0.056469
36.11 	0.055184 	4929 	0.054471
36.15 	0.062158 	4939 	0.060597
36.19 	0.051822 	4940 	0.051348
36.23 	0.057953 	4935 	0.056529
36.27 	0.055228 	4925 	0.054753
36.31 	0.053774 	4928 	0.053061
36.35 	0.060459 	4929 	0.059864
36.39 	0.057915 	4921 	0.057082
36.43 	0.053977 	4928 	0.053740
36.47 	0.055511 	4936 	0.053968
36.51 	0.051895 	4933 	0.051420
36.55 	0.055206 	4927 	0.054136
36.59 	0.062361 	4939 	0.060918
36.63 	0.060840 	4931 	0.060602
36.67 	0.057606 	4930 	0.056062
36.71 	0.058118 	4921 	0.056690
36.75 	0.055623 	4944 	0.054300
36.79 	0.053444 	4921 	0.052611
36.83 	0.052492 	4915 	0.052016
36.87 	0.055623 	4944 	0.054063
36.91 	0.059300 	4941 	0.058213
36.95 	0.054936 	4933 	0.054105
36.99 	0.059777 	4935 	0.058214
37.03 	0.057271 	4924 	0.056676
37.07 	0.060182 	4935 	0.058877
37.11 	0.053293 	4935 	0.052225
37.15 	0.059279 	4909 	0.057966
37.19 	0.052995 	4925 	0.052400
37.23 	0.055714 	4918 	0.054761
37.27 	0.057213 	4894 	0.055996
37.31 	0.059777 	4935 	0.058946
37.35 	0.061158 	4938 	0.060091
37.39 	0.054350 	4931 	0.053043
37.43 	0.059205 	4932 	0.058493
37.47 	0.060256 	4929 	0.059523
37.51 	0.056558 	4933 	0.055845
37.55 	0.051724 	4930 	0.051011
37.59 	0.050254 	4915 	0.049539
37.63 	0.055092 	4919 	0.054616
37.67 	0.060971 	4904 	0.059398
37.71 	0.046257 	4929 	0.046019
37.75 	0.059514 	4940 	0.058427
37.79 	0.060243 	4930 	0.058818
37.83 	0.056098 	4920 	0.055621
37.87 	0.054464 	4939 	0.053871
37.91 	0.061663 	4930 	0.060713
37.95 	0.054664 	4921 	0.053473
37.99 	0.057818 	4912 	0.057221
38.03 	0.062946 	4909 	0.061494
38.07 	0.053982 	4909 	0.053505
38.11 	0.050456 	4935 	0.049625
38.15 	0.055104 	4918 	0.054151
38.19 	0.052941 	4930 	0.051991
38.23 	0.054070 	4938 	0.053715
38.27 	0.054970 	4930 	0.054257
38.31 	0.063528 	4927 	0.062220
38.35 	0.056818 	4928 	0.056462
38.39 	0.071298 	4909 	0.070462
38.43 	0.060212 	4916 	0.058782
38.47 	0.063379 	4907 	0.062304
38.51 	0.062855 	4932 	0.061548
38.55 	0.064019 	4936 	0.063307
38.59 	0.065191 	4924 	0.063525
38.63 	0.063769 	4924 	0.062580
38.67 	0.063196 	4937 	0.062128
38.71 	0.059098 	4924 	0.057909
38.75 	0.056627 	4927 	0.055438
38.79 	0.059181 	4934 	0.058706
38.83 	0.057329 	4919 	0.056138
38.87 	0.051721 	4911 	0.051363
38.91 	0.057924 	4903 	0.056251
38.95 	0.053680 	4918 	0.052966
38.99 	0.055094 	4937 	0.054244
39.03 	0.061411 	4934 	0.060698
39.07 	0.053209 	4924 	0.052376
39.11 	0.055770 	4931 	0.054938
39.15 	0.055748 	4915 	0.054913
39.19 	0.049827 	4917 	0.049231
39.23 	0.053401 	4925 	0.052212
39.27 	0.054175 	4910 	0.053101
39.31 	0.052826 	4884 	0.052586
39.35 	0.055522 	4935 	0.054572
39.39 	0.058024 	4929 	0.056954
39.43 	0.054733 	4933 	0.053665
39.47 	0.055454 	4923 	0.054383
39.51 	0.054021 	4924 	0.053426
39.55 	0.055092 	4919 	0.054616
39.59 	0.052932 	4912 	0.052455
39.63 	0.054653 	4922 	0.053700
39.67 	0.056177 	4913 	0.054866
39.71 	0.055158 	4895 	0.054081
39.75 	0.048498 	4928 	0.047547
39.79 	0.048112 	4926 	0.047399
39.83 	0.052290 	4934 	0.051440
39.87 	0.058477 	4925 	0.057407
39.91 	0.053230 	4922 	0.052873
39.95 	0.056968 	4915 	0.056134
39.99 	0.053933 	4932 	0.053577
40.03 	0.049107 	4928 	0.048394
40.07 	0.057485 	4923 	0.056414
40.11 	0.053295 	4916 	0.052104
40.15 	0.056381 	4913 	0.055646
40.19 	0.054575 	4929 	0.053624
40.23 	0.050487 	4932 	0.049774
40.27 	0.053474 	4937 	0.052268
40.31 	0.046973 	4939 	0.046380
40.35 	0.050823 	4919 	0.049871
40.39 	0.050091 	4931 	0.049972
40.43 	0.049980 	4922 	0.049028
40.47 	0.050020 	4918 	0.048929
40.51 	0.053434 	4922 	0.053077
40.55 	0.051956 	4908 	0.051220
40.59 	0.048410 	4937 	0.047935
40.63 	0.053955 	4930 	0.053005
40.67 	0.049270 	4932 	0.048439
40.71 	0.055556 	4932 	0.054962
40.75 	0.053133 	4931 	0.052658
40.79 	0.049350 	4924 	0.048279
40.83 	0.052760 	4928 	0.052284
40.87 	0.048498 	4928 	0.047785
40.91 	0.049970 	4923 	0.049494
40.95 	0.051089 	4913 	0.050254
40.99 	0.050569 	4924 	0.049736
41.03 	0.048930 	4905 	0.047935
41.07 	0.050913 	4930 	0.050437
41.11 	0.049240 	4935 	0.048409
41.15 	0.050597 	4941 	0.049530
41.19 	0.044828 	4930 	0.043877
41.23 	0.054869 	4939 	0.053921
41.27 	0.052119 	4931 	0.051288
41.31 	0.048449 	4933 	0.047618
41.35 	0.050425 	4938 	0.049951
41.39 	0.048652 	4933 	0.048177
41.43 	0.048286 	4929 	0.048048
41.47 	0.048721 	4926 	0.047651
41.51 	0.044939 	4940 	0.044228
41.55 	0.054914 	4935 	0.053727
41.59 	0.049260 	4933 	0.048785
41.63 	0.047995 	4938 	0.047264
41.67 	0.047571 	4940 	0.046859
41.71 	0.051885 	4934 	0.051291
41.75 	0.051126 	4929 	0.050056
41.79 	0.048948 	4944 	0.047981
41.83 	0.046063 	4928 	0.045231
41.87 	0.050861 	4935 	0.049555
41.91 	0.050648 	4936 	0.050055
41.95 	0.043399 	4931 	0.043043
41.99 	0.046483 	4905 	0.046005
42.03 	0.048188 	4939 	0.047713
42.07 	0.048815 	4937 	0.048222
42.11 	0.047927 	4945 	0.047335
42.15 	0.047590 	4938 	0.046997
42.19 	0.043806 	4908 	0.042851
42.23 	0.051922 	4892 	0.050485
42.27 	0.047394 	4874 	0.046413
42.31 	0.046344 	4855 	0.045620
42.35 	0.043820 	4838 	0.043335
42.39 	0.043297 	4804 	0.043175
42.43 	0.046745 	4792 	0.046011
42.47 	0.043652 	4765 	0.043283
42.51 	0.046806 	4743 	0.046188
42.55 	0.046941 	4708 	0.046444
42.59 	0.049905 	4729 	0.049162
42.63 	0.047568 	4709 	0.047071
42.67 	0.043766 	4684 	0.043016
42.71 	0.048038 	4663 	0.047786
42.75 	0.045484 	4617 	0.044596
42.79 	0.047141 	4582 	0.047013
42.83 	0.042549 	4536 	0.042419
42.87 	0.048455 	4499 	0.047674
42.91 	0.042864 	4456 	0.042075
42.95 	0.048234 	4416 	0.047703
42.99 	0.045154 	4385 	0.043952
43.03 	0.050081 	4333 	0.049518
43.07 	0.045158 	4296 	0.044204
43.11 	0.044888 	4255 	0.044613
43.15 	0.043985 	4206 	0.043288
43.19 	0.041726 	4194 	0.041307
43.23 	0.048869 	4154 	0.048587
43.27 	0.047747 	4105 	0.047319
43.31 	0.046825 	4079 	0.045964
43.35 	0.047123 	4032 	0.046687
43.39 	0.050725 	4002 	0.049407
43.43 	0.039141 	3960 	0.038993
43.47 	0.052538 	3921 	0.051940
43.51 	0.046170 	3877 	0.045716
43.55 	0.046896 	2964 	0.046698
43.59 	0.045246 	1746 	0.043569
43.63 	0.038961 	1001 	0.037791
43.67 	0.047809 	502 	0.046642
43.71 	0.046025 	239 	0.046025
43.75 	0.062500 	16 	0.062500