File: Example_Data/25SC_s1_0041.001.dat
#F C:\frames\spec\25SC_s1_0041.001
#C title =s:41 frm:1 25SC_s1
#C wavelength =0.15406

#S 1  fr_average C:\frames\spec\25SC_s1_0041.001 C:\win32app\speccom\mask.axs chi 0 180 0 360 0.02
#C 2 theta =0.000000 to 180 deg
#C   q   =0.000000 to 81.568 nm^-1
#C  chi  =0.000000 to 360 deg
#C collumns:
#C  1 position (2theta or chi in degrees)
#C  2 average intensity (sum of all counts in the region divided with number of pixels)
#C  3 Number of pixels in region)
#C  4 error (sum of sqrt(intensity) for all pixels divided by number)
#N 4
#L TTh  Int  N_pix  Err
32.99 	0.032787 	61 	0.032787
33.03 	0.058950 	1391 	0.058108
33.07 	0.075610 	2050 	0.074467
33.11 	0.058550 	2579 	0.058323
33.15 	0.057686 	2999 	0.056514
33.19 	0.059844 	3342 	0.058793
33.23 	0.058473 	3523 	0.056949
33.27 	0.068044 	3630 	0.066753
33.31 	0.057923 	3660 	0.056803
33.35 	0.059015 	3694 	0.057905
33.39 	0.058997 	3729 	0.058840
33.43 	0.064079 	3761 	0.062988
33.47 	0.063981 	3798 	0.063056
33.51 	0.055046 	3815 	0.054585
33.55 	0.055686 	3843 	0.054924
33.59 	0.058505 	3880 	0.057297
33.63 	0.060985 	3919 	0.060088
33.67 	0.054881 	3954 	0.054140
33.71 	0.058113 	3975 	0.056640
33.75 	0.066017 	3999 	0.064845
33.79 	0.060876 	4041 	0.059426
33.83 	0.061235 	4050 	0.060222
33.87 	0.068840 	4111 	0.067249
33.91 	0.054471 	4149 	0.053906
33.95 	0.055967 	4181 	0.055267
33.99 	0.054286 	4200 	0.053449
34.03 	0.060320 	4244 	0.059630
34.07 	0.055998 	4268 	0.054763
34.11 	0.063226 	4302 	0.062273
34.15 	0.056800 	4331 	0.055988
34.19 	0.053187 	4362 	0.051978
34.23 	0.060779 	4393 	0.059712
34.27 	0.058571 	4422 	0.057643
34.31 	0.053611 	4458 	0.052297
34.35 	0.056646 	4484 	0.055993
34.39 	0.053754 	4502 	0.053103
34.43 	0.051333 	4539 	0.050559
34.47 	0.059016 	4592 	0.058123
34.51 	0.056231 	4606 	0.055722
34.55 	0.059014 	4643 	0.058257
34.59 	0.060321 	4675 	0.059694
34.63 	0.051168 	4710 	0.051043
34.67 	0.051466 	4741 	0.050477
34.71 	0.053924 	4766 	0.053186
34.75 	0.063644 	4808 	0.062791
34.79 	0.054726 	4824 	0.053755
34.83 	0.059441 	4862 	0.058236
34.87 	0.059367 	4868 	0.058405
34.91 	0.054486 	4882 	0.053766
34.95 	0.051534 	4890 	0.050795
34.99 	0.054727 	4897 	0.054369
35.03 	0.056646 	4943 	0.055816
35.07 	0.050810 	4940 	0.049861
35.11 	0.058621 	4947 	0.057911
35.15 	0.056512 	4937 	0.054931
35.19 	0.058276 	4942 	0.057328
35.23 	0.053185 	4945 	0.053067
35.27 	0.063056 	4948 	0.062109
35.31 	0.055544 	4933 	0.054476
35.35 	0.053420 	4942 	0.052452
35.39 	0.059050 	4945 	0.058220
35.43 	0.051693 	4933 	0.050248
35.47 	0.053133 	4931 	0.052183
35.51 	0.065976 	4926 	0.064193
35.55 	0.054803 	4945 	0.053855
35.59 	0.056421 	4945 	0.055710
35.63 	0.057455 	4943 	0.056151
35.67 	0.058074 	4942 	0.057106
35.71 	0.056107 	4937 	0.055632
35.75 	0.053133 	4931 	0.052163
35.79 	0.057786 	4932 	0.056004
35.83 	0.056207 	4946 	0.055260
35.87 	0.056470 	4923 	0.055637
35.91 	0.060686 	4927 	0.059378
35.95 	0.054301 	4917 	0.053229
35.99 	0.056084 	4939 	0.055610
36.03 	0.054218 	4943 	0.053863
36.07 	0.060944 	4939 	0.059876
36.11 	0.055995 	4929 	0.055163
36.15 	0.054060 	4939 	0.052873
36.19 	0.055263 	4940 	0.054789
36.23 	0.056738 	4935 	0.055669
36.27 	0.054619 	4925 	0.053668
36.31 	0.050731 	4928 	0.049998
36.35 	0.054981 	4929 	0.054030
36.39 	0.056899 	4921 	0.055312
36.43 	0.062297 	4928 	0.061465
36.47 	0.054295 	4936 	0.053346
36.51 	0.058788 	4933 	0.057363
36.55 	0.058859 	4927 	0.058008
36.59 	0.055882 	4939 	0.054459
36.63 	0.055770 	4931 	0.054582
36.67 	0.054158 	4930 	0.053445
36.71 	0.063808 	4921 	0.062479
36.75 	0.052184 	4944 	0.051711
36.79 	0.057509 	4921 	0.056318
36.83 	0.056765 	4915 	0.055812
36.87 	0.056634 	4944 	0.055805
36.91 	0.058895 	4941 	0.057828
36.95 	0.054125 	4933 	0.053532
36.99 	0.065046 	4935 	0.064333
37.03 	0.059301 	4924 	0.058588
37.07 	0.053698 	4935 	0.052630
37.11 	0.054914 	4935 	0.053846
37.15 	0.055816 	4909 	0.054981
37.19 	0.058477 	4925 	0.057169
37.23 	0.062627 	4918 	0.061416
37.27 	0.054557 	4894 	0.053479
37.31 	0.056940 	4935 	0.056228
37.35 	0.051640 	4938 	0.050573
37.39 	0.051105 	4931 	0.050511
37.43 	0.056975 	4932 	0.056500
37.47 	0.053966 	4929 	0.053016
37.51 	0.058788 	4933 	0.057007
37.55 	0.054564 	4930 	0.053495
37.59 	0.057172 	4915 	0.055861
37.63 	0.054279 	4919 	0.052850
37.67 	0.052610 	4904 	0.052132
37.71 	0.052140 	4929 	0.051289
37.75 	0.058300 	4940 	0.057944
37.79 	0.056795 	4930 	0.055607
37.83 	0.058943 	4920 	0.058229
37.87 	0.052237 	4939 	0.051288
37.91 	0.060041 	4930 	0.059090
37.95 	0.047755 	4921 	0.046802
37.99 	0.051303 	4912 	0.050826
38.03 	0.050316 	4909 	0.049719
38.07 	0.062742 	4909 	0.061549
38.11 	0.053901 	4935 	0.053189
38.15 	0.052460 	4918 	0.051269
38.19 	0.067343 	4930 	0.066392
38.23 	0.062373 	4938 	0.061306
38.27 	0.065314 	4930 	0.063651
38.31 	0.064136 	4927 	0.063166
38.35 	0.066761 	4928 	0.065553
38.39 	0.068853 	4909 	0.067660
38.43 	0.068959 	4916 	0.067290
38.47 	0.076218 	4907 	0.074666
38.51 	0.075831 	4932 	0.074050
38.55 	0.076175 	4936 	0.074751
38.59 	0.076767 	4924 	0.075101
38.63 	0.074330 	4924 	0.073259
38.67 	0.063399 	4937 	0.062568
38.71 	0.061332 	4924 	0.060262
38.75 	0.054394 	4927 	0.053919
38.79 	0.050872 	4934 	0.049566
38.83 	0.050620 	4919 	0.049667
38.87 	0.050906 	4911 	0.050429
38.91 	0.052621 	4903 	0.052023
38.95 	0.050224 	4918 	0.049747
38.99 	0.050233 	4937 	0.049996
39.03 	0.048439 	4934 	0.047608
39.07 	0.042851 	4924 	0.042237
39.11 	0.048266 	4931 	0.047553
39.15 	0.042319 	4915 	0.041843
39.19 	0.044336 	4917 	0.043740
39.23 	0.048731 	4925 	0.047898
39.27 	0.045010 	4910 	0.044294
39.31 	0.047502 	4884 	0.046902
39.35 	0.048024 	4935 	0.047431
39.39 	0.045242 	4929 	0.044510
39.43 	0.048044 	4933 	0.047688
39.47 	0.041235 	4923 	0.040997
39.51 	0.043867 	4924 	0.043629
39.55 	0.052653 	4919 	0.052038
39.59 	0.043974 	4912 	0.043020
39.63 	0.043275 	4922 	0.042680
39.67 	0.043558 	4913 	0.042723
39.71 	0.044535 	4895 	0.044057
39.75 	0.041802 	4928 	0.041564
39.79 	0.048924 	4926 	0.048686
39.83 	0.045197 	4934 	0.044840
39.87 	0.040203 	4925 	0.039608
39.91 	0.042869 	4922 	0.042155
39.95 	0.037640 	4915 	0.037521
39.99 	0.047445 	4932 	0.046733
40.03 	0.045252 	4928 	0.044875
40.07 	0.043876 	4923 	0.043043
40.11 	0.049430 	4916 	0.048477
40.15 	0.044779 	4913 	0.044183
40.19 	0.041388 	4929 	0.041031
40.23 	0.037510 	4932 	0.037035
40.27 	0.044156 	4937 	0.043800
40.31 	0.046163 	4939 	0.045689
40.35 	0.041472 	4919 	0.040876
40.39 	0.041979 	4931 	0.041385
40.43 	0.041447 	4922 	0.041328
40.47 	0.038024 	4918 	0.038024
40.51 	0.043478 	4922 	0.042883
40.55 	0.041769 	4908 	0.041530
40.59 	0.044359 	4937 	0.043766
40.63 	0.040568 	4930 	0.040211
40.67 	0.043998 	4932 	0.043405
40.71 	0.041565 	4932 	0.040734
40.75 	0.044616 	4931 	0.043784
40.79 	0.039399 	4924 	0.038923
40.83 	0.040990 	4928 	0.040515
40.87 	0.037744 	4928 	0.037268
40.91 	0.038188 	4923 	0.037831
40.95 	0.037248 	4913 	0.037010
40.99 	0.042445 	4924 	0.042207
41.03 	0.038532 	4905 	0.038054
41.07 	0.037120 	4930 	0.036506
41.11 	0.045998 	4935 	0.045266
41.15 	0.039668 	4941 	0.039312
41.19 	0.038742 	4930 	0.038624
41.23 	0.039077 	4939 	0.038958
41.27 	0.042385 	4931 	0.041910
41.31 	0.037705 	4933 	0.036874
41.35 	0.043337 	4938 	0.042507
41.39 	0.039530 	4933 	0.039055
41.43 	0.031649 	4929 	0.031531
41.47 	0.038774 	4926 	0.038417
41.51 	0.046559 	4940 	0.045709
41.55 	0.038095 	4935 	0.037620
41.59 	0.038719 	4933 	0.038006
41.63 	0.043135 	4938 	0.042404
41.67 	0.047166 	4940 	0.046929
41.71 	0.040535 	4934 	0.039348
41.75 	0.035910 	4929 	0.035197
41.79 	0.038228 	4944 	0.037754
41.83 	0.036729 	4928 	0.035877
41.87 	0.036272 	4935 	0.035915
41.91 	0.038088 	4936 	0.037969
41.95 	0.044413 	4931 	0.043819
41.99 	0.037309 	4905 	0.036692
42.03 	0.040494 	4939 	0.040257
42.07 	0.040713 	4937 	0.040238
42.11 	0.039434 	4945 	0.039434
42.15 	0.041110 	4938 	0.040734
42.19 	0.039935 	4908 	0.039457
42.23 	0.037408 	4892 	0.037049
42.27 	0.036110 	4874 	0.035389
42.31 	0.039341 	4855 	0.039100
42.35 	0.035759 	4838 	0.035516
42.39 	0.035179 	4804 	0.035057
42.43 	0.039858 	4792 	0.039736
42.47 	0.038825 	4765 	0.038456
42.51 	0.043643 	4743 	0.042902
42.55 	0.031223 	4708 	0.030850
42.59 	0.038063 	4729 	0.037815
42.63 	0.042897 	4709 	0.042503
42.67 	0.040137 	4684 	0.039511
42.71 	0.036028 	4663 	0.035777
42.75 	0.038986 	4617 	0.038479
42.79 	0.040157 	4582 	0.039774
42.83 	0.040564 	4536 	0.040177
42.87 	0.040009 	4499 	0.039488
42.91 	0.038824 	4456 	0.038298
42.95 	0.040082 	4416 	0.039286
42.99 	0.033523 	4385 	0.032989
43.03 	0.040849 	4333 	0.040444
43.07 	0.037244 	4296 	0.036835
43.11 	0.030787 	4255 	0.030512
43.15 	0.042320 	4206 	0.042042
43.19 	0.035050 	4194 	0.034771
43.23 	0.040443 	4154 	0.040020
43.27 	0.035566 	4105 	0.035281
43.31 	0.037509 	4079 	0.037222
43.35 	0.039435 	4032 	0.038999
43.39 	0.037231 	4002 	0.037085
43.43 	0.036111 	3960 	0.035667
43.47 	0.029584 	3921 	0.029435
43.51 	0.039979 	3877 	0.039526
43.55 	0.041161 	2964 	0.040765
43.59 	0.041237 	1746 	0.040566
43.63 	0.036963 	1001 	0.036378
43.67 	0.021912 	502 	0.021912
43.71 	0.033473 	239 	0.033473
43.75 	0.187500 	16 	0.187500