File: Example_Data/25SC_s1_0021.004.dat
#F C:\frames\spec\25SC_s1_0021.004
#C title =s:21 frm:4 25SC_s1
#C wavelength =0.15406

#S 1  fr_average C:\frames\spec\25SC_s1_0021.004 C:\win32app\speccom\mask.axs chi 0 180 0 360 0.02
#C 2 theta =0.000000 to 180 deg
#C   q   =0.000000 to 81.568 nm^-1
#C  chi  =0.000000 to 360 deg
#C collumns:
#C  1 position (2theta or chi in degrees)
#C  2 average intensity (sum of all counts in the region divided with number of pixels)
#C  3 Number of pixels in region)
#C  4 error (sum of sqrt(intensity) for all pixels divided by number)
#N 4
#L TTh  Int  N_pix  Err
32.99 	0.065574 	61 	0.065574
33.03 	0.071172 	1391 	0.070751
33.07 	0.065854 	2050 	0.065282
33.11 	0.069794 	2579 	0.068659
33.15 	0.066689 	2999 	0.065126
33.19 	0.054458 	3342 	0.053231
33.23 	0.057054 	3523 	0.056389
33.27 	0.060606 	3630 	0.059476
33.31 	0.061475 	3660 	0.060515
33.35 	0.059827 	3694 	0.058558
33.39 	0.060070 	3729 	0.059284
33.43 	0.059027 	3761 	0.058560
33.47 	0.056345 	3798 	0.055703
33.51 	0.060813 	3815 	0.059252
33.55 	0.060630 	3843 	0.059715
33.59 	0.060309 	3880 	0.059252
33.63 	0.069405 	3919 	0.067737
33.67 	0.059181 	3954 	0.058144
33.71 	0.057358 	3975 	0.056474
33.75 	0.054014 	3999 	0.052842
33.79 	0.061123 	4041 	0.060544
33.83 	0.058025 	4050 	0.056844
33.87 	0.061785 	4111 	0.061358
33.91 	0.055917 	4149 	0.055494
33.95 	0.062425 	4181 	0.061725
33.99 	0.057619 	4200 	0.056782
34.03 	0.051838 	4244 	0.050849
34.07 	0.058575 	4268 	0.057889
34.11 	0.057183 	4302 	0.056502
34.15 	0.054953 	4331 	0.053578
34.19 	0.058918 	4362 	0.058359
34.23 	0.063055 	4393 	0.061321
34.27 	0.055179 	4422 	0.054097
34.31 	0.061687 	4458 	0.060767
34.35 	0.066012 	4484 	0.064575
34.39 	0.058641 	4502 	0.057339
34.43 	0.062569 	4539 	0.061515
34.47 	0.061411 	4592 	0.059753
34.51 	0.059705 	4606 	0.058687
34.55 	0.056860 	4643 	0.055724
34.59 	0.056471 	4675 	0.055343
34.63 	0.056688 	4710 	0.055569
34.67 	0.061169 	4741 	0.060427
34.71 	0.055183 	4766 	0.054302
34.75 	0.051997 	4808 	0.051509
34.79 	0.054934 	4824 	0.054205
34.83 	0.064377 	4862 	0.063533
34.87 	0.050329 	4868 	0.049366
34.91 	0.059402 	4882 	0.058682
34.95 	0.060327 	4890 	0.059249
34.99 	0.062487 	4897 	0.061530
35.03 	0.058264 	4943 	0.057553
35.07 	0.060931 	4940 	0.059864
35.11 	0.064079 	4947 	0.062639
35.15 	0.060158 	4937 	0.058715
35.19 	0.053420 	4942 	0.052590
35.23 	0.057836 	4945 	0.057007
35.27 	0.061843 	4948 	0.060896
35.31 	0.055139 	4933 	0.054426
35.35 	0.056050 	4942 	0.055082
35.39 	0.064105 	4945 	0.063276
35.43 	0.062639 	4933 	0.061808
35.47 	0.058406 	4931 	0.057337
35.51 	0.056435 	4926 	0.055722
35.55 	0.055005 	4945 	0.054768
35.59 	0.058241 	4945 	0.057037
35.63 	0.063120 	4943 	0.061697
35.67 	0.061716 	4942 	0.060886
35.71 	0.056512 	4937 	0.055326
35.75 	0.054756 	4931 	0.054162
35.79 	0.060827 	4932 	0.059402
35.83 	0.060453 	4946 	0.059624
35.87 	0.056063 	4923 	0.055230
35.91 	0.052770 	4927 	0.051819
35.95 	0.053895 	4917 	0.053180
35.99 	0.056894 	4939 	0.055945
36.03 	0.058871 	4943 	0.057548
36.07 	0.058514 	4939 	0.057071
36.11 	0.062690 	4929 	0.061858
36.15 	0.060539 	4939 	0.058878
36.19 	0.054656 	4940 	0.053707
36.23 	0.049037 	4935 	0.047969
36.27 	0.049340 	4925 	0.048745
36.31 	0.056006 	4928 	0.054937
36.35 	0.062893 	4929 	0.062061
36.39 	0.059744 	4921 	0.058911
36.43 	0.059050 	4928 	0.057981
36.47 	0.050446 	4936 	0.049734
36.51 	0.054936 	4933 	0.054580
36.55 	0.058656 	4927 	0.057467
36.59 	0.053857 	4939 	0.052652
36.63 	0.053742 	4931 	0.052910
36.67 	0.055984 	4930 	0.054895
36.71 	0.060557 	4921 	0.059724
36.75 	0.056230 	4944 	0.055400
36.79 	0.058118 	4921 	0.056928
36.83 	0.061038 	4915 	0.060184
36.87 	0.056837 	4944 	0.055889
36.91 	0.057073 	4941 	0.056362
36.95 	0.051895 	4933 	0.051539
36.99 	0.055522 	4935 	0.054810
37.03 	0.058489 	4924 	0.057418
37.07 	0.053090 	4935 	0.052240
37.11 	0.055117 	4935 	0.054404
37.15 	0.061112 	4909 	0.060158
37.19 	0.055635 	4925 	0.055040
37.23 	0.056324 	4918 	0.055371
37.27 	0.055170 	4894 	0.053833
37.31 	0.053901 	4935 	0.053307
37.35 	0.050830 	4938 	0.049407
37.39 	0.055364 	4931 	0.055008
37.43 	0.055556 	4932 	0.054487
37.47 	0.057415 	4929 	0.056702
37.51 	0.052098 	4933 	0.051742
37.55 	0.052535 	4930 	0.051823
37.59 	0.059003 	4915 	0.058050
37.63 	0.055702 	4919 	0.054968
37.67 	0.058931 	4904 	0.057120
37.71 	0.054981 	4929 	0.054268
37.75 	0.059312 	4940 	0.058482
37.79 	0.058824 	4930 	0.057992
37.83 	0.051423 	4920 	0.050947
37.87 	0.053655 	4939 	0.052587
37.91 	0.049696 	4930 	0.048983
37.95 	0.053648 	4921 	0.052695
37.99 	0.053135 	4912 	0.051943
38.03 	0.053371 	4909 	0.052655
38.07 	0.052964 	4909 	0.052367
38.11 	0.056738 	4935 	0.055669
38.15 	0.060594 	4918 	0.059760
38.19 	0.057404 	4930 	0.056453
38.23 	0.054070 	4938 	0.053477
38.27 	0.065923 	4930 	0.064616
38.31 	0.065354 	4927 	0.064165
38.35 	0.066761 	4928 	0.065335
38.39 	0.059279 	4909 	0.058444
38.43 	0.070789 	4916 	0.069836
38.47 	0.060933 	4907 	0.059978
38.51 	0.063260 	4932 	0.061716
38.55 	0.068274 	4936 	0.066554
38.59 	0.060317 	4924 	0.058870
38.63 	0.061738 	4924 	0.061500
38.67 	0.055499 	4937 	0.054550
38.71 	0.060723 	4924 	0.059890
38.75 	0.062107 	4927 	0.060423
38.79 	0.051074 	4934 	0.050124
38.83 	0.057735 	4919 	0.055949
38.87 	0.056200 	4911 	0.055365
38.91 	0.054252 	4903 	0.053058
38.95 	0.053274 	4918 	0.052440
38.99 	0.060158 	4937 	0.059327
39.03 	0.057965 	4934 	0.057134
39.07 	0.052803 	4924 	0.052327
39.11 	0.050294 	4931 	0.049344
39.15 	0.056562 	4915 	0.055489
39.19 	0.054098 	4917 	0.053006
39.23 	0.054822 	4925 	0.053990
39.27 	0.054379 	4910 	0.053305
39.31 	0.053235 	4884 	0.052515
39.35 	0.052685 	4935 	0.051973
39.39 	0.052343 	4929 	0.051868
39.43 	0.058382 	4933 	0.057314
39.47 	0.056267 	4923 	0.055791
39.51 	0.056458 	4924 	0.055725
39.55 	0.058142 	4919 	0.056713
39.59 	0.058225 	4912 	0.057390
39.63 	0.061967 	4922 	0.060975
39.67 	0.053328 	4913 	0.052255
39.71 	0.055158 	4895 	0.054321
39.75 	0.059862 	4928 	0.058911
39.79 	0.055217 	4926 	0.054266
39.83 	0.052088 	4934 	0.051613
39.87 	0.054416 	4925 	0.053346
39.91 	0.058919 	4922 	0.058205
39.95 	0.052492 	4915 	0.050705
39.99 	0.052514 	4932 	0.051920
40.03 	0.051948 	4928 	0.050878
40.07 	0.056470 	4923 	0.055022
40.11 	0.053702 	4916 	0.052630
40.15 	0.057806 	4913 	0.056832
40.19 	0.054981 	4929 	0.053436
40.23 	0.056975 	4932 	0.055392
40.27 	0.057930 	4937 	0.057436
40.31 	0.047176 	4939 	0.046820
40.35 	0.049807 	4919 	0.049092
40.39 	0.048063 	4931 	0.047826
40.43 	0.050183 	4922 	0.049687
40.47 	0.059984 	4918 	0.058554
40.51 	0.054449 	4922 	0.054092
40.55 	0.047474 	4908 	0.046996
40.59 	0.050638 	4937 	0.050163
40.63 	0.047465 	4930 	0.046989
40.67 	0.056772 	4932 	0.055941
40.71 	0.054947 	4932 	0.053997
40.75 	0.051916 	4931 	0.051679
40.79 	0.051584 	4924 	0.051108
40.83 	0.050325 	4928 	0.049116
40.87 	0.051339 	4928 	0.050388
40.91 	0.055454 	4923 	0.054383
40.95 	0.052921 	4913 	0.051967
40.99 	0.050772 	4924 	0.050177
41.03 	0.056065 	4905 	0.055468
41.07 	0.051724 	4930 	0.051011
41.11 	0.051874 	4935 	0.051281
41.15 	0.050597 	4941 	0.049767
41.19 	0.051116 	4930 	0.050522
41.23 	0.058716 	4939 	0.057412
41.27 	0.049077 	4931 	0.048483
41.31 	0.046017 	4933 	0.045304
41.35 	0.053665 	4938 	0.053191
41.39 	0.047030 	4933 	0.046555
41.43 	0.049300 	4929 	0.048230
41.47 	0.051157 	4926 	0.050087
41.51 	0.049393 	4940 	0.048918
41.55 	0.047416 	4935 	0.046823
41.59 	0.052301 	4933 	0.051688
41.63 	0.047185 	4938 	0.046711
41.67 	0.041903 	4940 	0.041310
41.71 	0.056344 	4934 	0.055631
41.75 	0.053763 	4929 	0.053288
41.79 	0.048139 	4944 	0.047428
41.83 	0.048904 	4928 	0.048191
41.87 	0.047214 	4935 	0.046858
41.91 	0.046394 	4936 	0.045563
41.95 	0.052322 	4931 	0.051728
41.99 	0.043017 	4905 	0.042898
42.03 	0.044746 	4939 	0.043916
42.07 	0.047802 	4937 	0.047446
42.11 	0.050556 	4945 	0.050082
42.15 	0.044957 	4938 	0.044602
42.19 	0.046251 	4908 	0.045296
42.23 	0.044563 	4892 	0.043724
42.27 	0.043701 	4874 	0.043341
42.31 	0.055407 	4855 	0.054904
42.35 	0.045267 	4838 	0.044540
42.39 	0.049542 	4804 	0.048688
42.43 	0.046536 	4792 	0.045558
42.47 	0.043022 	4765 	0.042530
42.51 	0.046806 	4743 	0.046188
42.55 	0.044180 	4708 	0.043434
42.59 	0.048636 	4729 	0.048017
42.63 	0.043109 	4709 	0.042487
42.67 	0.048249 	4684 	0.047749
42.71 	0.047823 	4663 	0.046798
42.75 	0.050249 	4617 	0.050122
42.79 	0.044959 	4582 	0.044319
42.83 	0.044312 	4536 	0.043516
42.87 	0.046677 	4499 	0.045635
42.91 	0.049596 	4456 	0.049333
42.95 	0.042572 	4416 	0.042307
42.99 	0.043101 	4385 	0.042701
43.03 	0.047081 	4333 	0.046405
43.07 	0.047020 	4296 	0.046453
43.11 	0.045593 	4255 	0.044882
43.15 	0.045649 	4206 	0.044953
43.19 	0.049118 	4194 	0.048559
43.23 	0.050554 	4154 	0.049849
43.27 	0.035810 	4105 	0.035382
43.31 	0.049767 	4079 	0.049049
43.35 	0.045883 	4032 	0.045157
43.39 	0.049475 	4002 	0.048866
43.43 	0.044192 	3960 	0.043896
43.47 	0.046672 	3921 	0.045775
43.51 	0.043075 	3877 	0.042621
43.55 	0.051282 	2964 	0.050492
43.59 	0.059565 	1746 	0.058894
43.63 	0.046953 	1001 	0.046953
43.67 	0.055777 	502 	0.055777
43.71 	0.033473 	239 	0.033473
43.75 	0.000000 	16 	0.000000