File: Example_Data/25SC_s1_0020.003.dat
#F C:\frames\spec\25SC_s1_0020.003
#C title =s:20 frm:3 25SC_s1
#C wavelength =0.15406

#S 1  fr_average C:\frames\spec\25SC_s1_0020.003 C:\win32app\speccom\mask.axs chi 0 180 0 360 0.02
#C 2 theta =0.000000 to 180 deg
#C   q   =0.000000 to 81.568 nm^-1
#C  chi  =0.000000 to 360 deg
#C collumns:
#C  1 position (2theta or chi in degrees)
#C  2 average intensity (sum of all counts in the region divided with number of pixels)
#C  3 Number of pixels in region)
#C  4 error (sum of sqrt(intensity) for all pixels divided by number)
#N 4
#L TTh  Int  N_pix  Err
32.99 	0.147541 	61 	0.137938
33.03 	0.063983 	1391 	0.062719
33.07 	0.056585 	2050 	0.054585
33.11 	0.063203 	2579 	0.062067
33.15 	0.066022 	2999 	0.064655
33.19 	0.053860 	3342 	0.053509
33.23 	0.053931 	3523 	0.053432
33.27 	0.052617 	3630 	0.051649
33.31 	0.065574 	3660 	0.064774
33.35 	0.061992 	3694 	0.061200
33.39 	0.061142 	3729 	0.060043
33.43 	0.067269 	3761 	0.066335
33.47 	0.059242 	3798 	0.058316
33.51 	0.055570 	3815 	0.054649
33.55 	0.067916 	3843 	0.066696
33.59 	0.050258 	3880 	0.049654
33.63 	0.065578 	3919 	0.064681
33.67 	0.056904 	3954 	0.056016
33.71 	0.064906 	3975 	0.063432
33.75 	0.062016 	3999 	0.059941
33.79 	0.065825 	4041 	0.064666
33.83 	0.056790 	4050 	0.055922
33.87 	0.055947 	4111 	0.055093
33.91 	0.053025 	4149 	0.051590
33.95 	0.057403 	4181 	0.056702
33.99 	0.060000 	4200 	0.058745
34.03 	0.064090 	4244 	0.063400
34.07 	0.060918 	4268 	0.059271
34.11 	0.064389 	4302 	0.062596
34.15 	0.062803 	4331 	0.061992
34.19 	0.062815 	4362 	0.062278
34.23 	0.056681 	4393 	0.055748
34.27 	0.057666 	4422 	0.055812
34.31 	0.058098 	4458 	0.057047
34.35 	0.059768 	4484 	0.058592
34.39 	0.061972 	4502 	0.060801
34.43 	0.059925 	4539 	0.059151
34.47 	0.054660 	4592 	0.053512
34.51 	0.061876 	4606 	0.060710
34.55 	0.060952 	4643 	0.059816
34.59 	0.054973 	4675 	0.053846
34.63 	0.060934 	4710 	0.060064
34.67 	0.053153 	4741 	0.052536
34.71 	0.057910 	4766 	0.056804
34.75 	0.055324 	4808 	0.054106
34.79 	0.056799 	4824 	0.056192
34.83 	0.060058 	4862 	0.058732
34.87 	0.059573 	4868 	0.058490
34.91 	0.060221 	4882 	0.059501
34.95 	0.060532 	4890 	0.059573
34.99 	0.060037 	4897 	0.059439
35.03 	0.064333 	4943 	0.063504
35.07 	0.060931 	4940 	0.059469
35.11 	0.061047 	4947 	0.059607
35.15 	0.052461 	4937 	0.051018
35.19 	0.061918 	4942 	0.060002
35.23 	0.061476 	4945 	0.060529
35.27 	0.059216 	4948 	0.058150
35.31 	0.061423 	4933 	0.060236
35.35 	0.060299 	4942 	0.058739
35.39 	0.063094 	4945 	0.061909
35.43 	0.065072 	4933 	0.064478
35.47 	0.062259 	4931 	0.060814
35.51 	0.063540 	4926 	0.062351
35.55 	0.056421 	4945 	0.056065
35.59 	0.059252 	4945 	0.058285
35.63 	0.057657 	4943 	0.056591
35.67 	0.068393 	4942 	0.066971
35.71 	0.053676 	4937 	0.052608
35.75 	0.057189 	4931 	0.055764
35.79 	0.061233 	4932 	0.060164
35.83 	0.058633 	4946 	0.057686
35.87 	0.060938 	4923 	0.060225
35.91 	0.056221 	4927 	0.055389
35.95 	0.058776 	4917 	0.057823
35.99 	0.058311 	4939 	0.057007
36.03 	0.059883 	4943 	0.059053
36.07 	0.056692 	4939 	0.055486
36.11 	0.059850 	4929 	0.058424
36.15 	0.061551 	4939 	0.060128
36.19 	0.057895 	4940 	0.056709
36.23 	0.059574 	4935 	0.058862
36.27 	0.054010 	4925 	0.052940
36.31 	0.060268 	4928 	0.059436
36.35 	0.061270 	4929 	0.060082
36.39 	0.049380 	4921 	0.048666
36.43 	0.052557 	4928 	0.051349
36.47 	0.050648 	4936 	0.050035
36.51 	0.055544 	4933 	0.054951
36.55 	0.059671 	4927 	0.058363
36.59 	0.056084 	4939 	0.055847
36.63 	0.057595 	4931 	0.056882
36.67 	0.053144 	4930 	0.052431
36.71 	0.052022 	4921 	0.051189
36.75 	0.059668 	4944 	0.058720
36.79 	0.056493 	4921 	0.054469
36.83 	0.059817 	4915 	0.059340
36.87 	0.059061 	4944 	0.057640
36.91 	0.057478 	4941 	0.056293
36.95 	0.050882 	4933 	0.049694
36.99 	0.051874 	4935 	0.051400
37.03 	0.056864 	4924 	0.055913
37.07 	0.056738 	4935 	0.055907
37.11 	0.055117 	4935 	0.053930
37.15 	0.053982 	4909 	0.053267
37.19 	0.052183 	4925 	0.051826
37.23 	0.056120 	4918 	0.054929
37.27 	0.055578 	4894 	0.054501
37.31 	0.050659 	4935 	0.050065
37.35 	0.054881 	4938 	0.054050
37.39 	0.059217 	4931 	0.058386
37.43 	0.051500 	4932 	0.050649
37.47 	0.059444 	4929 	0.058969
37.51 	0.052909 	4933 	0.051365
37.55 	0.053955 	4930 	0.053124
37.59 	0.052085 	4915 	0.051728
37.63 	0.055702 	4919 	0.054631
37.67 	0.048328 	4904 	0.048208
37.71 	0.055589 	4929 	0.054163
37.75 	0.051417 	4940 	0.050468
37.79 	0.046450 	4930 	0.046094
37.83 	0.051220 	4920 	0.050743
37.87 	0.049808 	4939 	0.048740
37.91 	0.046450 	4930 	0.045619
37.95 	0.045926 	4921 	0.045449
37.99 	0.054153 	4912 	0.053557
38.03 	0.058057 	4909 	0.057460
38.07 	0.055612 	4909 	0.054658
38.11 	0.050861 	4935 	0.049892
38.15 	0.051037 	4918 	0.050084
38.19 	0.061866 	4930 	0.061272
38.23 	0.054881 	4938 	0.053694
38.27 	0.056795 	4930 	0.056439
38.31 	0.060077 	4927 	0.059344
38.35 	0.053977 	4928 	0.053145
38.39 	0.054594 	4909 	0.053758
38.43 	0.054109 	4916 	0.053632
38.47 	0.064805 	4907 	0.064089
38.51 	0.066099 	4932 	0.065149
38.55 	0.059968 	4936 	0.058899
38.59 	0.054224 	4924 	0.053154
38.63 	0.057474 	4924 	0.056641
38.67 	0.061981 	4937 	0.061032
38.71 	0.057474 	4924 	0.056522
38.75 	0.060686 	4927 	0.060210
38.79 	0.049250 	4934 	0.048063
38.83 	0.050620 	4919 	0.049648
38.87 	0.052942 	4911 	0.052107
38.91 	0.049765 	4903 	0.049168
38.95 	0.047987 	4918 	0.047272
38.99 	0.047195 	4937 	0.046601
39.03 	0.051480 	4934 	0.050866
39.07 	0.049959 	4924 	0.049127
39.11 	0.046035 	4931 	0.044966
39.15 	0.051882 	4915 	0.051048
39.19 	0.048607 	4917 	0.048011
39.23 	0.043858 	4925 	0.043501
39.27 	0.048473 	4910 	0.047876
39.31 	0.045659 	4884 	0.045419
39.35 	0.045187 	4935 	0.044594
39.39 	0.044431 	4929 	0.043480
39.43 	0.051085 	4933 	0.050115
39.47 	0.041438 	4923 	0.041319
39.51 	0.046913 	4924 	0.046080
39.55 	0.057735 	4919 	0.056664
39.59 	0.051303 	4912 	0.050826
39.63 	0.049777 	4922 	0.049062
39.67 	0.047425 	4913 	0.046471
39.71 	0.048621 	4895 	0.048262
39.75 	0.055601 	4928 	0.054650
39.79 	0.048924 	4926 	0.047497
39.83 	0.049453 	4934 	0.048622
39.87 	0.047513 	4925 	0.047037
39.91 	0.045713 	4922 	0.045098
39.95 	0.050254 	4915 	0.049182
39.99 	0.054542 	4932 	0.053948
40.03 	0.046063 	4928 	0.044855
40.07 	0.045501 	4923 	0.044906
40.11 	0.044752 	4916 	0.044037
40.15 	0.048443 	4913 	0.047728
40.19 	0.050112 	4929 	0.049517
40.23 	0.048054 	4932 	0.047697
40.27 	0.051651 	4937 	0.050583
40.31 	0.048188 	4939 	0.047358
40.35 	0.050213 	4919 	0.049737
40.39 	0.050902 	4931 	0.050408
40.43 	0.046526 	4922 	0.045693
40.47 	0.048394 	4918 	0.047798
40.51 	0.045307 	4922 	0.044593
40.55 	0.046455 	4908 	0.045739
40.59 	0.046182 	4937 	0.045470
40.63 	0.050101 	4930 	0.049626
40.67 	0.045418 	4932 	0.045180
40.71 	0.046431 	4932 	0.045600
40.75 	0.049280 	4931 	0.048686
40.79 	0.047929 	4924 	0.047215
40.83 	0.043628 	4928 	0.042915
40.87 	0.051136 	4928 	0.050542
40.91 	0.044485 	4923 	0.044128
40.95 	0.043761 	4913 	0.043285
40.99 	0.042039 	4924 	0.041325
41.03 	0.042813 	4905 	0.042097
41.07 	0.046247 	4930 	0.045416
41.11 	0.043364 	4935 	0.042652
41.15 	0.047561 	4941 	0.047443
41.19 	0.046653 	4930 	0.045683
41.23 	0.047580 	4939 	0.046987
41.27 	0.042182 	4931 	0.041945
41.31 	0.047436 	4933 	0.046822
41.35 	0.040097 	4938 	0.039623
41.39 	0.045408 	4933 	0.045171
41.43 	0.051329 	4929 	0.050735
41.47 	0.045676 	4926 	0.044725
41.51 	0.039069 	4940 	0.038832
41.55 	0.045593 	4935 	0.045237
41.59 	0.045408 	4933 	0.044676
41.63 	0.041920 	4938 	0.041683
41.67 	0.039271 	4940 	0.038560
41.71 	0.044386 	4934 	0.043792
41.75 	0.042808 	4929 	0.042332
41.79 	0.042678 	4944 	0.041375
41.83 	0.045252 	4928 	0.044657
41.87 	0.040122 	4935 	0.039884
41.91 	0.042545 	4936 	0.042050
41.95 	0.042385 	4931 	0.041910
41.99 	0.044648 	4905 	0.044171
42.03 	0.043126 	4939 	0.042770
42.07 	0.048613 	4937 	0.047782
42.11 	0.039636 	4945 	0.039162
42.15 	0.040705 	4938 	0.040349
42.19 	0.041769 	4908 	0.041410
42.23 	0.044154 	4892 	0.043316
42.27 	0.044112 	4874 	0.043631
42.31 	0.040577 	4855 	0.040094
42.35 	0.043200 	4838 	0.042594
42.39 	0.043089 	4804 	0.042236
42.43 	0.040067 	4792 	0.039822
42.47 	0.041973 	4765 	0.041112
42.51 	0.045962 	4743 	0.045221
42.55 	0.043755 	4708 	0.043133
42.59 	0.041235 	4729 	0.040987
42.63 	0.039286 	4709 	0.038540
42.67 	0.042699 	4684 	0.042573
42.71 	0.040103 	4663 	0.039852
42.75 	0.041369 	4617 	0.040988
42.79 	0.042994 	4582 	0.042355
42.83 	0.040344 	4536 	0.039956
42.87 	0.043565 	4499 	0.042914
42.91 	0.042190 	4456 	0.041927
42.95 	0.038723 	4416 	0.038590
42.99 	0.033751 	4385 	0.033351
43.03 	0.042696 	4333 	0.042425
43.07 	0.041434 	4296 	0.040888
43.11 	0.044653 	4255 	0.044516
43.15 	0.037090 	4206 	0.036533
43.19 	0.039580 	4194 	0.039161
43.23 	0.039239 	4154 	0.038511
43.27 	0.042631 	4105 	0.041917
43.31 	0.037019 	4079 	0.036732
43.35 	0.038690 	4032 	0.037819
43.39 	0.045977 	4002 	0.045245
43.43 	0.040909 	3960 	0.040317
43.47 	0.038766 	3921 	0.038317
43.51 	0.037658 	3877 	0.037205
43.55 	0.045547 	2964 	0.045151
43.59 	0.034364 	1746 	0.032967
43.63 	0.040959 	1001 	0.040959
43.67 	0.049801 	502 	0.049801
43.71 	0.054393 	239 	0.054393
43.75 	0.125000 	16 	0.125000