File: Example_Data/25SC_s1_0016.002.dat
#F C:\frames\spec\25SC_s1_0016.002
#C title =s:16 frm:2 25SC_s1
#C wavelength =0.15406

#S 1  fr_average C:\frames\spec\25SC_s1_0016.002 C:\win32app\speccom\mask.axs chi 0 180 0 360 0.02
#C 2 theta =0.000000 to 180 deg
#C   q   =0.000000 to 81.568 nm^-1
#C  chi  =0.000000 to 360 deg
#C collumns:
#C  1 position (2theta or chi in degrees)
#C  2 average intensity (sum of all counts in the region divided with number of pixels)
#C  3 Number of pixels in region)
#C  4 error (sum of sqrt(intensity) for all pixels divided by number)
#N 4
#L TTh  Int  N_pix  Err
32.99 	0.065574 	61 	0.065574
33.03 	0.051042 	1391 	0.050621
33.07 	0.061463 	2050 	0.060320
33.11 	0.050019 	2579 	0.049338
33.15 	0.048683 	2999 	0.048292
33.19 	0.063136 	3342 	0.062084
33.23 	0.059324 	3523 	0.058493
33.27 	0.061983 	3630 	0.060692
33.31 	0.059290 	3660 	0.058169
33.35 	0.060368 	3694 	0.060051
33.39 	0.069187 	3729 	0.067434
33.43 	0.056102 	3761 	0.055168
33.47 	0.058715 	3798 	0.056864
33.51 	0.053735 	3815 	0.053121
33.55 	0.058548 	3843 	0.057481
33.59 	0.066753 	3880 	0.065092
33.63 	0.062261 	3919 	0.060916
33.67 	0.058928 	3954 	0.057742
33.71 	0.057610 	3975 	0.056873
33.75 	0.064516 	3999 	0.062758
33.79 	0.067310 	4041 	0.066440
33.83 	0.056296 	4050 	0.054995
33.87 	0.059353 	4111 	0.058356
33.91 	0.060014 	4149 	0.058603
33.95 	0.062664 	4181 	0.061403
33.99 	0.058810 	4200 	0.058252
34.03 	0.061027 	4244 	0.059923
34.07 	0.058810 	4268 	0.057140
34.11 	0.058810 	4302 	0.057834
34.15 	0.063496 	4331 	0.062797
34.19 	0.054562 	4362 	0.054025
34.23 	0.057592 	4393 	0.056392
34.27 	0.054726 	4422 	0.053137
34.31 	0.051817 	4458 	0.051554
34.35 	0.053747 	4484 	0.052571
34.39 	0.059307 	4502 	0.058006
34.43 	0.056180 	4539 	0.055793
34.47 	0.055531 	4592 	0.054894
34.51 	0.056665 	4606 	0.055775
34.55 	0.057721 	4643 	0.056712
34.59 	0.053048 	4675 	0.051795
34.63 	0.060510 	4710 	0.059515
34.67 	0.056739 	4741 	0.055854
34.71 	0.057700 	4766 	0.057332
34.75 	0.063436 	4808 	0.062461
34.79 	0.058665 	4824 	0.057188
34.83 	0.054504 	4862 	0.053260
34.87 	0.059162 	4868 	0.058199
34.91 	0.055510 	4882 	0.054430
34.95 	0.057260 	4890 	0.055783
34.99 	0.063508 	4897 	0.062671
35.03 	0.060085 	4943 	0.059117
35.07 	0.058097 	4940 	0.057267
35.11 	0.061249 	4947 	0.060302
35.15 	0.057525 	4937 	0.056813
35.19 	0.059085 	4942 	0.057900
35.23 	0.052983 	4945 	0.051660
35.27 	0.056993 	4948 	0.055789
35.31 	0.061423 	4933 	0.060810
35.35 	0.057669 	4942 	0.056602
35.39 	0.058038 	4945 	0.057071
35.43 	0.053720 	4933 	0.052770
35.47 	0.061854 	4931 	0.060052
35.51 	0.059683 	4926 	0.058494
35.55 	0.060465 	4945 	0.059754
35.59 	0.059050 	4945 	0.057983
35.63 	0.057050 	4943 	0.056339
35.67 	0.058883 	4942 	0.058290
35.71 	0.057525 	4937 	0.056694
35.75 	0.060637 	4931 	0.059310
35.79 	0.062247 	4932 	0.060821
35.83 	0.059644 	4946 	0.057967
35.87 	0.059110 	4923 	0.058158
35.91 	0.058047 	4927 	0.057215
35.95 	0.056945 	4917 	0.055635
35.99 	0.060336 	4939 	0.059624
36.03 	0.055027 	4943 	0.054198
36.07 	0.056489 	4939 	0.055896
36.11 	0.055184 	4929 	0.054352
36.15 	0.055072 	4939 	0.054104
36.19 	0.053036 	4940 	0.052325
36.23 	0.060993 	4935 	0.059806
36.27 	0.056447 	4925 	0.055852
36.31 	0.062500 	4928 	0.061430
36.35 	0.060459 	4929 	0.059627
36.39 	0.055680 	4921 	0.054370
36.43 	0.056006 	4928 	0.055412
36.47 	0.063412 	4936 	0.062106
36.51 	0.060612 	4933 	0.059187
36.55 	0.062107 	4927 	0.060423
36.59 	0.059526 	4939 	0.058933
36.63 	0.057392 	4931 	0.056798
36.67 	0.062272 	4930 	0.060014
36.71 	0.053851 	4921 	0.053137
36.75 	0.055421 	4944 	0.054828
36.79 	0.058118 	4921 	0.056809
36.83 	0.061038 	4915 	0.059369
36.87 	0.060680 	4944 	0.059376
36.91 	0.056062 	4941 	0.055232
36.95 	0.055139 	4933 	0.053932
36.99 	0.055927 	4935 	0.055452
37.03 	0.055443 	4924 	0.054828
37.07 	0.058561 	4935 	0.057612
37.11 	0.060790 	4935 	0.059465
37.15 	0.057853 	4909 	0.056898
37.19 	0.053198 	4925 	0.052365
37.23 	0.053477 	4918 	0.052762
37.27 	0.055987 	4894 	0.055628
37.31 	0.054103 	4935 	0.052916
37.35 	0.054475 	4938 	0.053882
37.39 	0.051308 	4931 	0.050595
37.43 	0.054947 	4932 	0.054591
37.47 	0.053763 	4929 	0.052218
37.51 	0.055139 	4933 	0.054070
37.55 	0.056389 	4930 	0.055895
37.59 	0.057375 	4915 	0.056184
37.63 	0.051840 	4919 	0.051244
37.67 	0.052814 	4904 	0.052456
37.71 	0.053155 	4929 	0.052422
37.75 	0.056883 	4940 	0.055914
37.79 	0.051318 	4930 	0.050487
37.83 	0.053659 	4920 	0.053301
37.87 	0.055882 	4939 	0.055763
37.91 	0.052941 	4930 	0.052347
37.95 	0.059338 	4921 	0.058504
37.99 	0.049267 	4912 	0.048432
38.03 	0.050927 	4909 	0.050688
38.07 	0.049501 	4909 	0.048904
38.11 	0.049240 	4935 	0.048765
38.15 	0.054697 	4918 	0.053486
38.19 	0.055578 	4930 	0.054271
38.23 	0.049210 	4938 	0.048854
38.27 	0.054361 	4930 	0.053648
38.31 	0.066166 	4927 	0.065334
38.35 	0.057427 	4928 	0.056595
38.39 	0.061112 	4909 	0.060158
38.43 	0.059601 	4916 	0.058886
38.47 	0.060322 	4907 	0.059725
38.51 	0.072993 	4932 	0.072043
38.55 	0.057334 	4936 	0.056484
38.59 	0.060114 	4924 	0.059638
38.63 	0.066816 	4924 	0.065388
38.67 	0.069475 	4937 	0.068368
38.71 	0.058692 	4924 	0.057621
38.75 	0.056221 	4927 	0.055389
38.79 	0.059384 	4934 	0.057959
38.83 	0.060378 	4919 	0.058830
38.87 	0.053960 	4911 	0.053483
38.91 	0.063227 	4903 	0.061793
38.95 	0.053070 	4918 	0.052117
38.99 	0.049220 	4937 	0.048034
39.03 	0.050872 	4934 	0.050397
39.07 	0.046507 	4924 	0.046031
39.11 	0.046441 	4931 	0.045728
39.15 	0.041709 	4915 	0.041352
39.19 	0.047997 	4917 	0.047282
39.23 	0.047513 	4925 	0.046799
39.27 	0.043177 	4910 	0.042700
39.31 	0.043407 	4884 	0.042687
39.35 	0.049443 	4935 	0.048256
39.39 	0.043619 	4929 	0.043382
39.43 	0.042976 	4933 	0.042501
39.47 	0.047126 	4923 	0.046174
39.51 	0.045695 	4924 	0.045219
39.55 	0.043911 	4919 	0.042840
39.59 	0.048453 	4912 	0.048214
39.63 	0.052824 	4922 	0.052229
39.67 	0.047629 	4913 	0.047033
39.71 	0.050255 	4895 	0.049059
39.75 	0.040179 	4928 	0.039684
39.79 	0.044458 	4926 	0.044101
39.83 	0.051682 	4934 	0.051089
39.87 	0.040812 	4925 	0.040336
39.91 	0.042259 	4922 	0.041783
39.95 	0.048830 	4915 	0.047996
39.99 	0.044607 	4932 	0.044250
40.03 	0.044846 	4928 	0.044014
40.07 	0.048141 	4923 	0.047903
40.11 	0.043328 	4916 	0.042851
40.15 	0.045797 	4913 	0.045439
40.19 	0.043417 	4929 	0.043179
40.23 	0.045823 	4932 	0.045111
40.27 	0.047397 	4937 	0.047160
40.31 	0.044948 	4939 	0.044593
40.35 	0.046148 	4919 	0.045195
40.39 	0.049483 	4931 	0.048651
40.43 	0.046526 	4922 	0.046169
40.47 	0.048394 	4918 	0.047917
40.51 	0.045510 	4922 	0.044677
40.55 	0.041565 	4908 	0.041087
40.59 	0.043144 	4937 	0.042788
40.63 	0.047059 	4930 	0.045989
40.67 	0.049473 	4932 	0.048641
40.71 	0.046837 	4932 	0.046006
40.75 	0.046238 	4931 	0.045407
40.79 	0.041024 	4924 	0.040310
40.83 	0.044846 	4928 	0.044251
40.87 	0.043831 	4928 	0.043356
40.91 	0.037782 	4923 	0.037187
40.95 	0.043965 	4913 	0.043369
40.99 	0.044070 	4924 	0.043237
41.03 	0.045056 	4905 	0.044459
41.07 	0.036511 	4930 	0.036392
41.11 	0.040527 	4935 	0.039933
41.15 	0.046954 	4941 	0.046243
41.19 	0.041176 	4930 	0.040939
41.23 	0.043936 	4939 	0.042730
41.27 	0.042791 	4931 	0.042315
41.31 	0.040543 	4933 	0.040187
41.35 	0.043135 	4938 	0.042423
41.39 	0.040138 	4933 	0.039900
41.43 	0.043214 	4929 	0.042719
41.47 	0.045067 	4926 	0.044472
41.51 	0.044534 	4940 	0.043704
41.55 	0.038298 	4935 	0.037348
41.59 	0.043381 	4933 	0.042550
41.63 	0.039490 	4938 	0.038897
41.67 	0.038866 	4940 	0.038036
41.71 	0.041751 	4934 	0.041157
41.75 	0.042808 	4929 	0.042332
41.79 	0.039442 	4944 	0.038968
41.83 	0.043222 	4928 	0.042747
41.87 	0.046201 	4935 	0.045231
41.91 	0.039911 	4936 	0.039317
41.95 	0.043196 	4931 	0.042602
41.99 	0.040979 	4905 	0.040023
42.03 	0.037052 	4939 	0.036696
42.07 	0.037675 	4937 	0.037437
42.11 	0.042467 	4945 	0.042112
42.15 	0.046375 	4938 	0.045545
42.19 	0.036064 	4908 	0.035586
42.23 	0.040679 	4892 	0.040319
42.27 	0.038572 	4874 	0.038091
42.31 	0.043048 	4855 	0.042807
42.35 	0.038446 	4838 	0.037941
42.39 	0.041840 	4804 	0.041352
42.43 	0.035267 	4792 	0.034900
42.47 	0.038615 	4765 	0.038369
42.51 	0.038372 	4743 	0.037755
42.55 	0.042906 	4708 	0.042284
42.59 	0.040178 	4729 	0.039806
42.63 	0.043746 	4709 	0.043000
42.67 	0.041204 	4684 	0.040829
42.71 	0.039674 	4663 	0.039172
42.75 	0.036604 	4617 	0.036477
42.79 	0.044740 	4582 	0.044101
42.83 	0.044092 	4536 	0.043833
42.87 	0.043343 	4499 	0.042692
42.91 	0.038375 	4456 	0.037718
42.95 	0.042120 	4416 	0.042120
42.99 	0.034664 	4385 	0.034263
43.03 	0.038541 	4333 	0.038136
43.07 	0.037477 	4296 	0.037068
43.11 	0.042538 	4255 	0.042263
43.15 	0.038279 	4206 	0.037025
43.19 	0.043634 	4194 	0.042796
43.23 	0.037554 	4154 	0.037272
43.27 	0.042144 	4105 	0.041288
43.31 	0.042658 	4079 	0.042083
43.35 	0.036954 	4032 	0.036809
43.39 	0.042979 	4002 	0.042539
43.43 	0.039899 	3960 	0.039751
43.47 	0.041316 	3921 	0.040718
43.51 	0.039464 	3877 	0.038708
43.55 	0.041498 	2964 	0.041300
43.59 	0.048110 	1746 	0.047439
43.63 	0.031968 	1001 	0.031968
43.67 	0.045817 	502 	0.044650
43.71 	0.029289 	239 	0.029289
43.75 	0.125000 	16 	0.125000