File: Example_Data/25SC_s1_0035.002.dat
#F C:\frames\spec\25SC_s1_0035.002
#C title =s:35 frm:2 25SC_s1
#C wavelength =0.15406

#S 1  fr_average C:\frames\spec\25SC_s1_0035.002 C:\win32app\speccom\mask.axs chi 0 180 0 360 0.02
#C 2 theta =0.000000 to 180 deg
#C   q   =0.000000 to 81.568 nm^-1
#C  chi  =0.000000 to 360 deg
#C collumns:
#C  1 position (2theta or chi in degrees)
#C  2 average intensity (sum of all counts in the region divided with number of pixels)
#C  3 Number of pixels in region)
#C  4 error (sum of sqrt(intensity) for all pixels divided by number)
#N 4
#L TTh  Int  N_pix  Err
32.99 	0.098361 	61 	0.098361
33.03 	0.051042 	1391 	0.050200
33.07 	0.065854 	2050 	0.064711
33.11 	0.052734 	2579 	0.052279
33.15 	0.066355 	2999 	0.065574
33.19 	0.050868 	3342 	0.050342
33.23 	0.061595 	3523 	0.061096
33.27 	0.055647 	3630 	0.055163
33.31 	0.053552 	3660 	0.053072
33.35 	0.061451 	3694 	0.060658
33.39 	0.055243 	3729 	0.054457
33.43 	0.056900 	3761 	0.056588
33.47 	0.056345 	3798 	0.055420
33.51 	0.051900 	3815 	0.051286
33.55 	0.057767 	3843 	0.056243
33.59 	0.056443 	3880 	0.055060
33.63 	0.057923 	3919 	0.056852
33.67 	0.061457 	3954 	0.060716
33.71 	0.059371 	3975 	0.058339
33.75 	0.061015 	3999 	0.059257
33.79 	0.061866 	4041 	0.060537
33.83 	0.062222 	4050 	0.061499
33.87 	0.059596 	4111 	0.058599
33.91 	0.051097 	4149 	0.050814
33.95 	0.057163 	4181 	0.056323
33.99 	0.055238 	4200 	0.054401
34.03 	0.059614 	4244 	0.058371
34.07 	0.058810 	4268 	0.057025
34.11 	0.062297 	4302 	0.061071
34.15 	0.060494 	4331 	0.059953
34.19 	0.057084 	4362 	0.056144
34.23 	0.052584 	4393 	0.052584
34.27 	0.060606 	4422 	0.060076
34.31 	0.051817 	4458 	0.050766
34.35 	0.058207 	4484 	0.057162
34.39 	0.062861 	4502 	0.061690
34.43 	0.058603 	4539 	0.057700
34.47 	0.054660 	4592 	0.053512
34.51 	0.053409 	4606 	0.052518
34.55 	0.061167 	4643 	0.060032
34.59 	0.053262 	4675 	0.052385
34.63 	0.063270 	4710 	0.061280
34.67 	0.057583 	4741 	0.056718
34.71 	0.057281 	4766 	0.056052
34.75 	0.056572 	4808 	0.055841
34.79 	0.054934 	4824 	0.053699
34.83 	0.055533 	4862 	0.054429
34.87 	0.051561 	4868 	0.050599
34.91 	0.058583 	4882 	0.057143
34.95 	0.055010 	4890 	0.054052
34.99 	0.055953 	4897 	0.054637
35.03 	0.054016 	4943 	0.053186
35.07 	0.058300 	4940 	0.057707
35.11 	0.059026 	4947 	0.057822
35.15 	0.061576 	4937 	0.060864
35.19 	0.055443 	4942 	0.054021
35.23 	0.057027 	4945 	0.056553
35.27 	0.054770 	4948 	0.053704
35.31 	0.055544 	4933 	0.055188
35.35 	0.060907 	4942 	0.059583
35.39 	0.057230 	4945 	0.056025
35.43 	0.056152 	4933 	0.055559
35.47 	0.058203 	4931 	0.057609
35.51 	0.065164 	4926 	0.064451
35.55 	0.062285 	4945 	0.060745
35.59 	0.052781 	4945 	0.051714
35.63 	0.054016 	4943 	0.053423
35.67 	0.053015 	4942 	0.052422
35.71 	0.055094 	4937 	0.054620
35.75 	0.053742 	4931 	0.052178
35.79 	0.056164 	4932 	0.055451
35.83 	0.059038 	4946 	0.057616
35.87 	0.057079 	4923 	0.056484
35.91 	0.057642 	4927 	0.056928
35.95 	0.053895 	4917 	0.053299
35.99 	0.056287 	4939 	0.055437
36.03 	0.056646 	4943 	0.055935
36.07 	0.063778 	4939 	0.062454
36.11 	0.054778 	4929 	0.053708
36.15 	0.059526 	4939 	0.058577
36.19 	0.052024 	4940 	0.051431
36.23 	0.056130 	4935 	0.054943
36.27 	0.056447 	4925 	0.055971
36.31 	0.055804 	4928 	0.054853
36.35 	0.058227 	4929 	0.057157
36.39 	0.055883 	4921 	0.054216
36.43 	0.052557 	4928 	0.051844
36.47 	0.053282 	4936 	0.052689
36.51 	0.050274 	4933 	0.049324
36.55 	0.058250 	4927 	0.057418
36.59 	0.052440 	4939 	0.051728
36.63 	0.052930 	4931 	0.052099
36.67 	0.060243 	4930 	0.059293
36.71 	0.048771 	4921 	0.048652
36.75 	0.052184 	4944 	0.051355
36.79 	0.049177 	4921 	0.048562
36.83 	0.053713 	4915 	0.052760
36.87 	0.051173 	4944 	0.050818
36.91 	0.056669 	4941 	0.055839
36.95 	0.049260 	4933 	0.047954
36.99 	0.054509 	4935 	0.053559
37.03 	0.053412 	4924 	0.052698
37.07 	0.050051 	4935 	0.049338
37.11 	0.051469 	4935 	0.050282
37.15 	0.048482 	4909 	0.047647
37.19 	0.053198 	4925 	0.052365
37.23 	0.057747 	4918 	0.055960
37.27 	0.056191 	4894 	0.054875
37.31 	0.057953 	4935 	0.056885
37.35 	0.053058 	4938 	0.052228
37.39 	0.050091 	4931 	0.049497
37.43 	0.050081 	4932 	0.049487
37.47 	0.055792 	4929 	0.054604
37.51 	0.050071 	4933 	0.049715
37.55 	0.049696 	4930 	0.049102
37.59 	0.055341 	4915 	0.054268
37.63 	0.050213 	4919 	0.049261
37.67 	0.051183 	4904 	0.050705
37.71 	0.055386 	4929 	0.054555
37.75 	0.048178 	4940 	0.047467
37.79 	0.051521 	4930 	0.050808
37.83 	0.052439 	4920 	0.051963
37.87 	0.050415 	4939 	0.049585
37.91 	0.047465 	4930 	0.046633
37.95 	0.051006 	4921 	0.050768
37.99 	0.051507 	4912 	0.050056
38.03 	0.045427 	4909 	0.044472
38.07 	0.054186 	4909 	0.053112
38.11 	0.057751 	4935 	0.056920
38.15 	0.052867 	4918 	0.051914
38.19 	0.053550 	4930 	0.052837
38.23 	0.056703 	4938 	0.055991
38.27 	0.059026 	4930 	0.057957
38.31 	0.056221 	4927 	0.055507
38.35 	0.060065 	4928 	0.058639
38.39 	0.061112 	4909 	0.059919
38.43 	0.062449 	4916 	0.060900
38.47 	0.069289 	4907 	0.068214
38.51 	0.068938 	4932 	0.067394
38.55 	0.066451 	4936 	0.064670
38.59 	0.051990 	4924 	0.051395
38.63 	0.054630 	4924 	0.053798
38.67 	0.061981 	4937 	0.061862
38.71 	0.053615 	4924 	0.053139
38.75 	0.060280 	4927 	0.059428
38.79 	0.051074 	4934 	0.050481
38.83 	0.049400 	4919 	0.048924
38.87 	0.051110 	4911 	0.049897
38.91 	0.051601 	4903 	0.049809
38.95 	0.047580 	4918 	0.047104
38.99 	0.046790 	4937 	0.045959
39.03 	0.047426 	4934 	0.046595
39.07 	0.046913 	4924 	0.046080
39.11 	0.040763 	4931 	0.040050
39.15 	0.050254 	4915 	0.049420
39.19 	0.049217 	4917 	0.048979
39.23 	0.048731 	4925 	0.047660
39.27 	0.045621 	4910 	0.045025
39.31 	0.046888 	4884 	0.046408
39.35 	0.041135 	4935 	0.040779
39.39 	0.040779 	4929 	0.040185
39.43 	0.045206 	4933 	0.044256
39.47 	0.047735 	4923 	0.047002
39.51 	0.048335 	4924 	0.047621
39.55 	0.046554 	4919 	0.046316
39.59 	0.045399 	4912 	0.044683
39.63 	0.049777 	4922 	0.048448
39.67 	0.050071 	4913 	0.048760
39.71 	0.040245 	4895 	0.039747
39.75 	0.044034 	4928 	0.043321
39.79 	0.043240 	4926 	0.042883
39.83 	0.046007 	4934 	0.045532
39.87 	0.044670 	4925 	0.044194
39.91 	0.044088 	4922 	0.042660
39.95 	0.049034 	4915 	0.048438
39.99 	0.046026 	4932 	0.045313
40.03 	0.044643 	4928 	0.044286
40.07 	0.043673 	4923 	0.042939
40.11 	0.043938 	4916 	0.043342
40.15 	0.041726 	4913 	0.041249
40.19 	0.045040 	4929 	0.044683
40.23 	0.041160 	4932 	0.041041
40.27 	0.051853 	4937 	0.051497
40.31 	0.041911 	4939 	0.041437
40.35 	0.042895 	4919 	0.042419
40.39 	0.034273 	4931 	0.034273
40.43 	0.039821 	4922 	0.038869
40.47 	0.040057 	4918 	0.039580
40.51 	0.042462 	4922 	0.042105
40.55 	0.042176 	4908 	0.041579
40.59 	0.038282 	4937 	0.038045
40.63 	0.038742 	4930 	0.038267
40.67 	0.047242 	4932 	0.047005
40.71 	0.045620 	4932 	0.045145
40.75 	0.041777 	4931 	0.041420
40.79 	0.036353 	4924 	0.035639
40.83 	0.038555 	4928 	0.037842
40.87 	0.042208 	4928 	0.041970
40.91 	0.036766 	4923 	0.036647
40.95 	0.045797 	4913 	0.045320
40.99 	0.040211 	4924 	0.039735
41.03 	0.037717 	4905 	0.037358
41.07 	0.040365 	4930 	0.039771
41.11 	0.039311 	4935 	0.038836
41.15 	0.039466 	4941 	0.038754
41.19 	0.041379 	4930 	0.040666
41.23 	0.043126 	4939 	0.042652
41.27 	0.043805 	4931 	0.043329
41.31 	0.042976 	4933 	0.042620
41.35 	0.040300 	4938 	0.039588
41.39 	0.034665 	4933 	0.034308
41.43 	0.037736 	4929 	0.036647
41.47 	0.039789 	4926 	0.039313
41.51 	0.039676 	4940 	0.039083
41.55 	0.038095 	4935 	0.037739
41.59 	0.042570 	4933 	0.041977
41.63 	0.038680 	4938 	0.038324
41.67 	0.042915 	4940 	0.041966
41.71 	0.040940 	4934 	0.040347
41.75 	0.038344 	4929 	0.037631
41.79 	0.040049 	4944 	0.039693
41.83 	0.044846 	4928 	0.044251
41.87 	0.040122 	4935 	0.039647
41.91 	0.040519 	4936 	0.040044
41.95 	0.038329 	4931 	0.038091
41.99 	0.039144 	4905 	0.038547
42.03 	0.040089 	4939 	0.039496
42.07 	0.040713 	4937 	0.040357
42.11 	0.037816 	4945 	0.037342
42.15 	0.037667 	4938 	0.037074
42.19 	0.040342 	4908 	0.040104
42.23 	0.034751 	4892 	0.034751
42.27 	0.035289 	4874 	0.035049
42.31 	0.043460 	4855 	0.043219
42.35 	0.045887 	4838 	0.045039
42.39 	0.033722 	4804 	0.033600
42.43 	0.036728 	4792 	0.036483
42.47 	0.034837 	4765 	0.034591
42.51 	0.037318 	4743 	0.037195
42.55 	0.041206 	4708 	0.040833
42.59 	0.033622 	4729 	0.033498
42.63 	0.045870 	4709 	0.044501
42.67 	0.038429 	4684 	0.038304
42.71 	0.040961 	4663 	0.040961
42.75 	0.041152 	4617 	0.041025
42.79 	0.037538 	4582 	0.037155
42.83 	0.039242 	4536 	0.038983
42.87 	0.040009 	4499 	0.039488
42.91 	0.033438 	4456 	0.033438
42.95 	0.032156 	4416 	0.031890
42.99 	0.036944 	4385 	0.036543
43.03 	0.038772 	4333 	0.037939
43.07 	0.034218 	4296 	0.033809
43.11 	0.039483 	4255 	0.039208
43.15 	0.032573 	4206 	0.032433
43.19 	0.040057 	4194 	0.039219
43.23 	0.034665 	4154 	0.034242
43.27 	0.040438 	4105 	0.040153
43.31 	0.041677 	4079 	0.041246
43.35 	0.037202 	4032 	0.036767
43.39 	0.037731 	4002 	0.037146
43.43 	0.036111 	3960 	0.035815
43.47 	0.036725 	3921 	0.036128
43.51 	0.036884 	3877 	0.036884
43.55 	0.033063 	2964 	0.032866
43.59 	0.041237 	1746 	0.041237
43.63 	0.043956 	1001 	0.043956
43.67 	0.027888 	502 	0.027888
43.71 	0.041841 	239 	0.041841
43.75 	0.000000 	16 	0.000000