File: Example_Data/25SC_s1_0037.004.dat
#F C:\frames\spec\25SC_s1_0037.004
#C title =s:37 frm:4 25SC_s1
#C wavelength =0.15406

#S 1  fr_average C:\frames\spec\25SC_s1_0037.004 C:\win32app\speccom\mask.axs chi 0 180 0 360 0.02
#C 2 theta =0.000000 to 180 deg
#C   q   =0.000000 to 81.568 nm^-1
#C  chi  =0.000000 to 360 deg
#C collumns:
#C  1 position (2theta or chi in degrees)
#C  2 average intensity (sum of all counts in the region divided with number of pixels)
#C  3 Number of pixels in region)
#C  4 error (sum of sqrt(intensity) for all pixels divided by number)
#N 4
#L TTh  Int  N_pix  Err
32.99 	0.016393 	61 	0.016393
33.03 	0.063264 	1391 	0.062000
33.07 	0.062439 	2050 	0.061868
33.11 	0.051183 	2579 	0.050501
33.15 	0.055352 	2999 	0.054766
33.19 	0.055057 	3342 	0.054005
33.23 	0.059892 	3523 	0.059061
33.27 	0.052617 	3630 	0.051649
33.31 	0.063115 	3660 	0.061354
33.35 	0.064429 	3694 	0.063002
33.39 	0.056584 	3729 	0.055327
33.43 	0.060888 	3761 	0.059954
33.47 	0.062401 	3798 	0.061450
33.51 	0.060550 	3815 	0.058554
33.55 	0.053864 	3843 	0.052492
33.59 	0.062113 	3880 	0.061660
33.63 	0.059454 	3919 	0.058557
33.67 	0.058169 	3954 	0.056984
33.71 	0.057862 	3975 	0.056977
33.75 	0.060765 	3999 	0.059593
33.79 	0.064093 	4041 	0.062910
33.83 	0.058272 	4050 	0.057115
33.87 	0.053028 	4111 	0.052458
33.91 	0.058809 	4149 	0.057539
33.95 	0.059077 	4181 	0.058656
33.99 	0.056905 	4200 	0.056068
34.03 	0.055137 	4244 	0.054447
34.07 	0.054592 	4268 	0.053357
34.11 	0.051604 	4302 	0.050787
34.15 	0.061187 	4331 	0.060646
34.19 	0.054104 	4362 	0.053276
34.23 	0.055998 	4393 	0.055198
34.27 	0.058797 	4422 	0.058400
34.31 	0.055855 	4458 	0.054803
34.35 	0.064005 	4484 	0.063744
34.39 	0.054420 	4502 	0.053379
34.43 	0.057061 	4539 	0.056287
34.47 	0.058798 	4592 	0.057395
34.51 	0.055145 	4606 	0.053746
34.55 	0.054706 	4643 	0.053444
34.59 	0.058610 	4675 	0.057733
34.63 	0.055414 	4710 	0.054668
34.67 	0.054419 	4741 	0.052936
34.71 	0.052665 	4766 	0.052173
34.75 	0.060316 	4808 	0.058834
34.79 	0.058250 	4824 	0.057400
34.83 	0.056972 	4862 	0.055868
34.87 	0.058546 	4868 	0.057463
34.91 	0.059812 	4882 	0.059332
34.95 	0.053988 	4890 	0.053509
34.99 	0.059628 	4897 	0.058432
35.03 	0.057657 	4943 	0.056946
35.07 	0.058300 	4940 	0.057232
35.11 	0.057004 	4947 	0.055939
35.15 	0.060968 	4937 	0.059900
35.19 	0.054431 	4942 	0.053957
35.23 	0.056218 	4945 	0.055508
35.27 	0.052749 	4948 	0.051565
35.31 	0.055950 	4933 	0.054881
35.35 	0.053824 	4942 	0.053113
35.39 	0.063903 	4945 	0.062817
35.43 	0.054936 	4933 	0.054461
35.47 	0.061651 	4931 	0.060700
35.51 	0.060089 	4926 	0.059495
35.55 	0.059454 	4945 	0.059099
35.59 	0.060263 	4945 	0.059533
35.63 	0.055230 	4943 	0.054045
35.67 	0.059490 	4942 	0.058305
35.71 	0.059348 	4937 	0.058161
35.75 	0.053539 	4931 	0.052232
35.79 	0.057178 	4932 	0.055990
35.83 	0.052568 	4946 	0.051502
35.87 	0.060532 	4923 	0.059461
35.91 	0.059468 	4927 	0.058636
35.95 	0.058776 	4917 	0.057227
35.99 	0.051427 	4939 	0.050953
36.03 	0.060085 	4943 	0.059374
36.07 	0.057299 	4939 	0.056350
36.11 	0.056198 	4929 	0.055247
36.15 	0.058311 	4939 	0.057600
36.19 	0.052834 	4940 	0.052241
36.23 	0.051469 	4935 	0.050757
36.27 	0.055228 	4925 	0.054515
36.31 	0.054586 	4928 	0.054229
36.35 	0.058430 	4929 	0.057341
36.39 	0.060557 	4921 	0.059604
36.43 	0.059050 	4928 	0.057862
36.47 	0.046799 	4936 	0.046087
36.51 	0.055747 	4933 	0.055272
36.55 	0.057642 	4927 	0.056690
36.59 	0.055072 	4939 	0.053411
36.63 	0.055567 	4931 	0.054022
36.67 	0.050304 	4930 	0.049948
36.71 	0.055273 	4921 	0.054202
36.75 	0.050162 	4944 	0.049806
36.79 	0.059338 	4921 	0.057770
36.83 	0.056765 	4915 	0.055692
36.87 	0.059668 	4944 	0.059194
36.91 	0.052621 	4941 	0.051772
36.95 	0.054936 	4933 	0.054224
36.99 	0.060993 	4935 	0.060043
37.03 	0.051178 	4924 	0.050940
37.07 	0.052280 	4935 	0.051686
37.11 	0.053901 	4935 	0.053050
37.15 	0.055408 	4909 	0.054692
37.19 	0.058883 	4925 	0.058051
37.23 	0.048394 	4918 	0.047917
37.27 	0.054148 	4894 	0.053430
37.31 	0.057953 	4935 	0.056648
37.35 	0.053665 	4938 	0.052242
37.39 	0.053539 	4931 	0.051876
37.43 	0.054542 	4932 	0.054067
37.47 	0.054169 	4929 	0.053813
37.51 	0.056558 	4933 	0.055588
37.55 	0.060243 	4930 	0.059055
37.59 	0.054527 	4915 	0.053693
37.63 	0.058142 	4919 	0.057070
37.67 	0.050979 	4904 	0.050023
37.71 	0.052140 	4929 	0.051665
37.75 	0.053846 	4940 	0.052641
37.79 	0.059229 	4930 	0.058140
37.83 	0.055488 	4920 	0.054892
37.87 	0.053452 	4939 	0.052503
37.91 	0.057809 	4930 	0.056265
37.95 	0.060760 	4921 	0.059808
37.99 	0.051710 	4912 	0.051233
38.03 	0.053779 	4909 	0.053182
38.07 	0.052353 	4909 	0.051279
38.11 	0.053698 	4935 	0.052748
38.15 	0.057747 	4918 	0.056913
38.19 	0.054970 	4930 	0.054257
38.23 	0.059133 	4938 	0.058540
38.27 	0.059838 	4930 	0.059125
38.31 	0.058047 	4927 	0.056859
38.35 	0.066558 	4928 	0.064894
38.39 	0.064779 	4909 	0.063705
38.43 	0.062653 	4916 	0.061699
38.47 	0.068270 	4907 	0.066788
38.51 	0.066302 	4932 	0.064758
38.55 	0.058549 	4936 	0.057125
38.59 	0.065597 	4924 	0.064645
38.63 	0.057880 	4924 	0.056195
38.67 	0.059550 	4937 	0.058601
38.71 	0.052193 	4924 	0.051717
38.75 	0.051756 	4927 	0.051280
38.79 	0.059992 	4934 	0.058567
38.83 	0.054279 	4919 	0.053803
38.87 	0.054164 	4911 	0.053210
38.91 	0.057516 	4903 	0.056679
38.95 	0.055307 	4918 	0.053977
38.99 	0.054284 	4937 	0.053453
39.03 	0.053304 	4934 	0.052591
39.07 	0.050772 	4924 	0.049939
39.11 	0.056175 	4931 	0.055581
39.15 	0.054527 	4915 	0.053573
39.19 	0.054708 	4917 	0.053378
39.23 	0.047919 	4925 	0.046848
39.27 	0.054582 	4910 	0.053986
39.31 	0.056306 	4884 	0.056186
39.35 	0.053698 	4935 	0.052986
39.39 	0.048489 	4929 	0.047894
39.43 	0.049666 	4933 	0.049072
39.47 	0.053016 	4923 	0.052659
39.51 	0.056052 	4924 	0.055219
39.55 	0.052856 	4919 	0.051904
39.59 	0.058021 	4912 	0.056809
39.63 	0.057497 	4922 	0.056069
39.67 	0.049868 	4913 	0.048675
39.71 	0.056180 	4895 	0.055222
39.75 	0.054383 	4928 	0.053670
39.79 	0.050548 	4926 	0.049835
39.83 	0.059587 	4934 	0.058617
39.87 	0.056853 	4925 	0.055901
39.91 	0.054856 	4922 	0.053904
39.95 	0.051679 	4915 	0.050487
39.99 	0.053325 	4932 	0.052613
40.03 	0.052557 	4928 	0.051725
40.07 	0.058298 	4923 	0.057227
40.11 	0.054109 	4916 	0.053275
40.15 	0.046407 	4913 	0.045692
40.19 	0.047880 	4929 	0.047167
40.23 	0.051095 	4932 	0.050382
40.27 	0.057930 	4937 	0.056625
40.31 	0.053857 	4939 	0.053027
40.35 	0.057329 	4919 	0.056733
40.39 	0.058812 	4931 	0.058099
40.43 	0.050589 	4922 	0.049161
40.47 	0.048800 	4918 	0.048681
40.51 	0.055668 	4922 	0.054716
40.55 	0.051548 	4908 	0.050236
40.59 	0.050841 	4937 	0.050129
40.63 	0.049899 	4930 	0.049067
40.67 	0.047242 	4932 	0.046411
40.71 	0.053122 	4932 	0.052054
40.75 	0.056784 	4931 	0.056190
40.79 	0.050569 	4924 	0.049855
40.83 	0.050122 	4928 	0.049765
40.87 	0.051745 	4928 	0.051151
40.91 	0.051188 	4923 	0.049998
40.95 	0.049461 	4913 	0.048745
40.99 	0.051178 	4924 	0.050226
41.03 	0.048114 	4905 	0.047636
41.07 	0.049290 	4930 	0.048458
41.11 	0.052280 	4935 	0.051449
41.15 	0.058490 	4941 	0.057897
41.19 	0.046450 	4930 	0.045737
41.23 	0.048593 	4939 	0.047862
41.27 	0.054147 	4931 	0.053316
41.31 	0.051287 	4933 	0.050812
41.35 	0.049413 	4938 	0.048938
41.39 	0.046625 	4933 	0.046150
41.43 	0.044228 	4929 	0.043634
41.47 	0.045879 	4926 	0.045641
41.51 	0.047773 	4940 	0.046825
41.55 	0.053293 	4935 	0.052462
41.59 	0.050679 	4933 	0.049610
41.63 	0.047590 	4938 	0.046622
41.67 	0.046559 	4940 	0.046084
41.71 	0.047021 	4934 	0.046071
41.75 	0.045040 	4929 	0.044445
41.79 	0.049150 	4944 	0.048084
41.83 	0.043425 	4928 	0.042950
41.87 	0.051874 	4935 	0.051400
41.91 	0.043760 	4936 	0.043048
41.95 	0.046644 	4931 	0.045654
41.99 	0.045872 	4905 	0.045394
42.03 	0.045353 	4939 	0.044642
42.07 	0.048815 	4937 	0.047985
42.11 	0.044692 	4945 	0.043744
42.15 	0.049413 	4938 	0.048701
42.19 	0.048085 	4908 	0.047846
42.23 	0.050491 	4892 	0.049413
42.27 	0.048215 	4874 	0.047494
42.31 	0.045932 	4855 	0.045449
42.35 	0.044026 	4838 	0.043784
42.39 	0.053497 	4804 	0.052522
42.43 	0.050710 	4792 	0.049202
42.47 	0.038825 	4765 	0.038702
42.51 	0.045541 	4743 	0.045047
42.55 	0.048003 	4708 	0.047381
42.59 	0.047367 	4729 	0.046996
42.63 	0.046719 	4709 	0.046221
42.67 	0.046114 	4684 	0.045489
42.71 	0.045464 	4663 	0.044836
42.75 	0.040286 	4617 	0.039398
42.79 	0.051069 	4582 	0.050430
42.83 	0.050485 	4536 	0.049323
42.87 	0.043343 	4499 	0.042562
42.91 	0.048923 	4456 	0.048660
42.95 	0.045290 	4416 	0.044759
42.99 	0.041049 	4385 	0.040648
43.03 	0.044311 	4333 	0.043635
43.07 	0.051909 	4296 	0.050682
43.11 	0.043008 	4255 	0.042733
43.15 	0.045411 	4206 	0.044158
43.19 	0.050548 	4194 	0.049990
43.23 	0.053442 	4154 	0.052737
43.27 	0.043362 	4105 	0.043219
43.31 	0.053199 	4079 	0.052768
43.35 	0.045387 	4032 	0.044806
43.39 	0.040230 	4002 	0.040084
43.43 	0.052273 	3960 	0.051385
43.47 	0.053558 	3921 	0.052512
43.51 	0.045396 	3877 	0.044640
43.55 	0.045547 	2964 	0.044361
43.59 	0.049255 	1746 	0.047858
43.63 	0.037962 	1001 	0.036792
43.67 	0.057769 	502 	0.057769
43.71 	0.029289 	239 	0.029289
43.75 	0.000000 	16 	0.000000