File: Example_Data/25SC_s1_0017.004.dat
#F C:\frames\spec\25SC_s1_0017.004
#C title =s:17 frm:4 25SC_s1
#C wavelength =0.15406

#S 1  fr_average C:\frames\spec\25SC_s1_0017.004 C:\win32app\speccom\mask.axs chi 0 180 0 360 0.02
#C 2 theta =0.000000 to 180 deg
#C   q   =0.000000 to 81.568 nm^-1
#C  chi  =0.000000 to 360 deg
#C collumns:
#C  1 position (2theta or chi in degrees)
#C  2 average intensity (sum of all counts in the region divided with number of pixels)
#C  3 Number of pixels in region)
#C  4 error (sum of sqrt(intensity) for all pixels divided by number)
#N 4
#L TTh  Int  N_pix  Err
32.99 	0.065574 	61 	0.065574
33.03 	0.065421 	1391 	0.064578
33.07 	0.059024 	2050 	0.057881
33.11 	0.056999 	2579 	0.056053
33.15 	0.056686 	2999 	0.056067
33.19 	0.062238 	3342 	0.061537
33.23 	0.057337 	3523 	0.056839
33.27 	0.058953 	3630 	0.057662
33.31 	0.061475 	3660 	0.060355
33.35 	0.057932 	3694 	0.056478
33.39 	0.056584 	3729 	0.055641
33.43 	0.052911 	3761 	0.052288
33.47 	0.053186 	3798 	0.052569
33.51 	0.057667 	3815 	0.056746
33.55 	0.060370 	3843 	0.059607
33.59 	0.060309 	3880 	0.059379
33.63 	0.056392 	3919 	0.055495
33.67 	0.061710 	3954 	0.060228
33.71 	0.056352 	3975 	0.055026
33.75 	0.063016 	3999 	0.062430
33.79 	0.060876 	4041 	0.060441
33.83 	0.071111 	4050 	0.069809
33.87 	0.057650 	4111 	0.056653
33.91 	0.061220 	4149 	0.059667
33.95 	0.055967 	4181 	0.055104
33.99 	0.054524 	4200 	0.053687
34.03 	0.059378 	4244 	0.058274
34.07 	0.060684 	4268 	0.059449
34.11 	0.055323 	4302 	0.054234
34.15 	0.055645 	4331 	0.054699
34.19 	0.057084 	4362 	0.056010
34.23 	0.054177 	4393 	0.053222
34.27 	0.058571 	4422 	0.057643
34.31 	0.060341 	4458 	0.059290
34.35 	0.061329 	4484 	0.060001
34.39 	0.059307 	4502 	0.058656
34.43 	0.062789 	4539 	0.061757
34.47 	0.058362 	4592 	0.056959
34.51 	0.061007 	4606 	0.060096
34.55 	0.063106 	4643 	0.061592
34.59 	0.063957 	4675 	0.062328
34.63 	0.059448 	4710 	0.058204
34.67 	0.060114 	4741 	0.059125
34.71 	0.060428 	4766 	0.059302
34.75 	0.056780 	4808 	0.055684
34.79 	0.056385 	4824 	0.055656
34.83 	0.061497 	4862 	0.060895
34.87 	0.065735 	4868 	0.064652
34.91 	0.055715 	4882 	0.054635
34.95 	0.061759 	4890 	0.060561
34.99 	0.057178 	4897 	0.056580
35.03 	0.067773 	4943 	0.066351
35.07 	0.053846 	4940 	0.053372
35.11 	0.057813 	4947 	0.056866
35.15 	0.057525 	4937 	0.056081
35.19 	0.058276 	4942 	0.057209
35.23 	0.060263 	4945 	0.059078
35.27 	0.055780 	4948 	0.054715
35.31 	0.063653 	4933 	0.062347
35.35 	0.063942 	4942 	0.063349
35.39 	0.058038 	4945 	0.056972
35.43 	0.054733 	4933 	0.054140
35.47 	0.063273 	4931 	0.062085
35.51 	0.061307 	4926 	0.060099
35.55 	0.058645 	4945 	0.057224
35.59 	0.060667 	4945 	0.059246
35.63 	0.058669 	4943 	0.057839
35.67 	0.061716 	4942 	0.060768
35.71 	0.061171 	4937 	0.060083
35.75 	0.067126 	4931 	0.066532
35.79 	0.066504 	4932 	0.064703
35.83 	0.062273 	4946 	0.061325
35.87 	0.055657 	4923 	0.054824
35.91 	0.057845 	4927 	0.056774
35.95 	0.059182 	4917 	0.058468
35.99 	0.058919 	4939 	0.057970
36.03 	0.060894 	4943 	0.059690
36.07 	0.060539 	4939 	0.059234
36.11 	0.060256 	4929 	0.059067
36.15 	0.057299 	4939 	0.055757
36.19 	0.049393 	4940 	0.048207
36.23 	0.055724 	4935 	0.054419
36.27 	0.056650 	4925 	0.055441
36.31 	0.061282 	4928 	0.059975
36.35 	0.059850 	4929 	0.058780
36.39 	0.056899 	4921 	0.055709
36.43 	0.060674 	4928 	0.059485
36.47 	0.062196 	4936 	0.060990
36.51 	0.054328 	4933 	0.053259
36.55 	0.057845 	4927 	0.057012
36.59 	0.053655 	4939 	0.052943
36.63 	0.056175 	4931 	0.055106
36.67 	0.055578 	4930 	0.054984
36.71 	0.053851 	4921 	0.053375
36.75 	0.052589 	4944 	0.051286
36.79 	0.058321 	4921 	0.057369
36.83 	0.062258 	4915 	0.060471
36.87 	0.051982 	4944 	0.051271
36.91 	0.055454 	4941 	0.054387
36.95 	0.054733 	4933 	0.053902
36.99 	0.058359 	4935 	0.057409
37.03 	0.060114 	4924 	0.059162
37.07 	0.055117 	4935 	0.054167
37.11 	0.057143 	4935 	0.056174
37.15 	0.054594 	4909 	0.053639
37.19 	0.053401 	4925 	0.052212
37.23 	0.053680 	4918 	0.052847
37.27 	0.057213 	4894 	0.056255
37.31 	0.057345 	4935 	0.056258
37.35 	0.053463 	4938 	0.052988
37.39 	0.052525 	4931 	0.052050
37.43 	0.050487 	4932 	0.049774
37.47 	0.054575 	4929 	0.053862
37.51 	0.053517 	4933 	0.052923
37.55 	0.058824 	4930 	0.057873
37.59 	0.054120 	4915 	0.052909
37.63 	0.055092 	4919 	0.054259
37.67 	0.057096 	4904 	0.056380
37.71 	0.053763 	4929 	0.053407
37.75 	0.060324 	4940 	0.059612
37.79 	0.052535 	4930 	0.051585
37.83 	0.051829 	4920 	0.050639
37.87 	0.055679 	4939 	0.054968
37.91 	0.059635 	4930 	0.058328
37.95 	0.053038 	4921 	0.052086
37.99 	0.051303 	4912 	0.050826
38.03 	0.057853 	4909 	0.056540
38.07 	0.060297 	4909 	0.059462
38.11 	0.060385 	4935 	0.059079
38.15 	0.062627 	4918 	0.062270
38.19 	0.061258 	4930 	0.060050
38.23 	0.062373 	4938 	0.061187
38.27 	0.065720 	4930 	0.064651
38.31 	0.064136 	4927 	0.063066
38.35 	0.066356 	4928 	0.065028
38.39 	0.064575 	4909 	0.063501
38.43 	0.062856 	4916 	0.061903
38.47 	0.066028 	4907 	0.064357
38.51 	0.065896 	4932 	0.064333
38.55 	0.065032 	4936 	0.063707
38.59 	0.058489 	4924 	0.057775
38.63 	0.061942 	4924 	0.060494
38.67 	0.061373 	4937 	0.060305
38.71 	0.057271 	4924 	0.056676
38.75 	0.062107 	4927 	0.060918
38.79 	0.058979 	4934 	0.057910
38.83 	0.055092 	4919 	0.054378
38.87 	0.059255 	4911 	0.058658
38.91 	0.055068 	4903 	0.053635
38.95 	0.056934 	4918 	0.055981
38.99 	0.055094 	4937 	0.054620
39.03 	0.052088 	4934 	0.051138
39.07 	0.048741 	4924 	0.048265
39.11 	0.052322 	4931 	0.051134
39.15 	0.056562 	4915 	0.055251
39.19 	0.050641 	4917 	0.049926
39.23 	0.056244 	4925 	0.055411
39.27 	0.051527 	4910 	0.050931
39.31 	0.057125 	4884 	0.056166
39.35 	0.052280 	4935 	0.051330
39.39 	0.054372 	4929 	0.054016
39.43 	0.054125 	4933 	0.053769
39.47 	0.061954 	4923 	0.060288
39.51 	0.051381 	4924 	0.050667
39.55 	0.055092 	4919 	0.054497
39.59 	0.057818 	4912 	0.056267
39.63 	0.054246 	4922 	0.053294
39.67 	0.054753 	4913 	0.053422
39.71 	0.060674 	4895 	0.060195
39.75 	0.060471 	4928 	0.059876
39.79 	0.060292 	4926 	0.059579
39.83 	0.055736 	4934 	0.054529
39.87 	0.060305 	4925 	0.058877
39.91 	0.057903 	4922 	0.056832
39.95 	0.055137 	4915 	0.053826
39.99 	0.052514 	4932 	0.051445
40.03 	0.054180 	4928 	0.053110
40.07 	0.057485 	4923 	0.056652
40.11 	0.049227 	4916 	0.048035
40.15 	0.051903 	4913 	0.051068
40.19 	0.051126 	4929 	0.050651
40.23 	0.054947 	4932 	0.054235
40.27 	0.049625 	4937 	0.049151
40.31 	0.056084 	4939 	0.055491
40.35 	0.052043 	4919 	0.050971
40.39 	0.048469 	4931 	0.047994
40.43 	0.051199 	4922 	0.050247
40.47 	0.052054 	4918 	0.050982
40.51 	0.055262 	4922 	0.054072
40.55 	0.053790 	4908 	0.053432
40.59 	0.051853 	4937 	0.050785
40.63 	0.053144 	4930 	0.052669
40.67 	0.043187 	4932 	0.042950
40.71 	0.046837 	4932 	0.046243
40.75 	0.051105 	4931 	0.050392
40.79 	0.053209 	4924 	0.051900
40.83 	0.050122 	4928 	0.049765
40.87 	0.055804 	4928 	0.054853
40.91 	0.053829 	4923 	0.052758
40.95 	0.052717 	4913 	0.051883
40.99 	0.047522 	4924 	0.046928
41.03 	0.056881 	4905 	0.056164
41.07 	0.048884 	4930 	0.048053
41.11 	0.054509 	4935 	0.053678
41.15 	0.049585 	4941 	0.048992
41.19 	0.050304 	4930 	0.049354
41.23 	0.052237 	4939 	0.050933
41.27 	0.049888 	4931 	0.049057
41.31 	0.055139 	4933 	0.054308
41.35 	0.046983 	4938 	0.046152
41.39 	0.048449 	4933 	0.047361
41.43 	0.050112 	4929 	0.049260
41.47 	0.044052 	4926 	0.043081
41.51 	0.051417 	4940 	0.050943
41.55 	0.051672 	4935 	0.051078
41.59 	0.045003 	4933 	0.044409
41.63 	0.050628 	4938 	0.050153
41.67 	0.044130 	4940 	0.043655
41.71 	0.051682 	4934 	0.051207
41.75 	0.049300 	4929 	0.048825
41.79 	0.049353 	4944 	0.048523
41.83 	0.054180 	4928 	0.052873
41.87 	0.046606 	4935 	0.045894
41.91 	0.048015 	4936 	0.047184
41.95 	0.044413 	4931 	0.043581
41.99 	0.045464 	4905 	0.044867
42.03 	0.050415 	4939 	0.050296
42.07 	0.050841 	4937 	0.049654
42.11 	0.048534 	4945 	0.047942
42.15 	0.049615 	4938 	0.049141
42.19 	0.046047 	4908 	0.045451
42.23 	0.048855 	4892 	0.048376
42.27 	0.042675 	4874 	0.042315
42.31 	0.049022 	4855 	0.048157
42.35 	0.050641 	4838 	0.049672
42.39 	0.042465 	4804 	0.042221
42.43 	0.047788 	4792 	0.047299
42.47 	0.050577 	4765 	0.049717
42.51 	0.051866 	4743 	0.051001
42.55 	0.049278 	4708 	0.048282
42.59 	0.047156 	4729 	0.046041
42.63 	0.047356 	4709 	0.046859
42.67 	0.047609 	4684 	0.046483
42.71 	0.050397 	4663 	0.049140
42.75 	0.045267 	4617 	0.044506
42.79 	0.043213 	4582 	0.042701
42.83 	0.047178 	4536 	0.046403
42.87 	0.049344 	4499 	0.048563
42.91 	0.050943 	4456 	0.050154
42.95 	0.043705 	4416 	0.042909
42.99 	0.048803 	4385 	0.048001
43.03 	0.044773 	4333 	0.044367
43.07 	0.047253 	4296 	0.046435
43.11 	0.041598 	4255 	0.041047
43.15 	0.045887 	4206 	0.045190
43.19 	0.044349 	4194 	0.043651
43.23 	0.045017 	4154 	0.044735
43.27 	0.052132 	4105 	0.051275
43.31 	0.045354 	4079 	0.044780
43.35 	0.043899 	4032 	0.043172
43.39 	0.045227 	4002 	0.044349
43.43 	0.047727 	3960 	0.046692
43.47 	0.045397 	3921 	0.044500
43.51 	0.046686 	3877 	0.046383
43.55 	0.050270 	2964 	0.049875
43.59 	0.053265 	1746 	0.052929
43.63 	0.039960 	1001 	0.039960
43.67 	0.061753 	502 	0.059419
43.71 	0.029289 	239 	0.029289
43.75 	0.062500 	16 	0.062500