File: Example_Data/25SC_s1_0020.004.dat
#F C:\frames\spec\25SC_s1_0020.004
#C title =s:20 frm:4 25SC_s1
#C wavelength =0.15406

#S 1  fr_average C:\frames\spec\25SC_s1_0020.004 C:\win32app\speccom\mask.axs chi 0 180 0 360 0.02
#C 2 theta =0.000000 to 180 deg
#C   q   =0.000000 to 81.568 nm^-1
#C  chi  =0.000000 to 360 deg
#C collumns:
#C  1 position (2theta or chi in degrees)
#C  2 average intensity (sum of all counts in the region divided with number of pixels)
#C  3 Number of pixels in region)
#C  4 error (sum of sqrt(intensity) for all pixels divided by number)
#N 4
#L TTh  Int  N_pix  Err
32.99 	0.081967 	61 	0.081967
33.03 	0.065421 	1391 	0.064157
33.07 	0.057561 	2050 	0.056704
33.11 	0.060489 	2579 	0.059353
33.15 	0.053351 	2999 	0.051984
33.19 	0.059246 	3342 	0.058370
33.23 	0.059608 	3523 	0.058943
33.27 	0.058402 	3630 	0.057730
33.31 	0.064208 	3660 	0.062741
33.35 	0.062805 	3694 	0.061219
33.39 	0.057924 	3729 	0.056982
33.43 	0.057697 	3761 	0.056763
33.47 	0.058715 	3798 	0.057147
33.51 	0.057667 	3815 	0.056285
33.55 	0.059589 	3843 	0.058192
33.59 	0.061340 	3880 	0.060887
33.63 	0.060985 	3919 	0.059789
33.67 	0.061204 	3954 	0.059846
33.71 	0.067170 	3975 	0.065844
33.75 	0.060515 	3999 	0.059490
33.79 	0.061371 	4041 	0.060646
33.83 	0.059753 	4050 	0.059030
33.87 	0.069569 	4111 	0.067575
33.91 	0.060014 	4149 	0.059026
33.95 	0.069840 	4181 	0.068439
33.99 	0.057381 	4200 	0.056661
34.03 	0.062677 	4244 	0.061251
34.07 	0.064199 	4268 	0.063375
34.11 	0.058810 	4302 	0.057040
34.15 	0.064188 	4331 	0.062701
34.19 	0.057542 	4362 	0.057140
34.23 	0.065786 	4393 	0.063764
34.27 	0.064450 	4422 	0.062972
34.31 	0.057425 	4458 	0.056899
34.35 	0.065789 	4484 	0.064875
34.39 	0.057308 	4502 	0.056918
34.43 	0.058163 	4539 	0.057259
34.47 	0.060322 	4592 	0.059174
34.51 	0.063396 	4606 	0.061742
34.55 	0.060952 	4643 	0.059816
34.59 	0.062674 	4675 	0.061922
34.63 	0.058599 	4710 	0.058350
34.67 	0.060536 	4741 	0.059424
34.71 	0.059589 	4766 	0.058237
34.75 	0.062396 	4808 	0.061138
34.79 	0.054726 	4824 	0.054342
34.83 	0.056355 	4862 	0.055633
34.87 	0.059778 	4868 	0.058695
34.91 	0.058378 	4882 	0.057538
34.95 	0.066871 	4890 	0.065074
34.99 	0.065755 	4897 	0.064678
35.03 	0.055634 	4943 	0.055160
35.07 	0.055668 	4940 	0.054818
35.11 	0.061856 	4947 	0.061145
35.15 	0.062589 	4937 	0.061758
35.19 	0.055645 	4942 	0.055408
35.23 	0.061072 	4945 	0.060243
35.27 	0.061843 	4948 	0.060640
35.31 	0.056355 	4933 	0.055405
35.35 	0.063132 	4942 	0.062184
35.39 	0.065925 	4945 	0.064484
35.43 	0.053112 	4933 	0.052399
35.47 	0.061042 	4931 	0.060211
35.51 	0.056841 	4926 	0.055771
35.55 	0.064510 	4945 	0.063325
35.59 	0.059050 	4945 	0.058220
35.63 	0.059276 	4943 	0.058427
35.67 	0.063739 	4942 	0.062554
35.71 	0.052258 	4937 	0.051309
35.75 	0.066518 	4931 	0.065429
35.79 	0.057380 	4932 	0.056905
35.83 	0.060655 	4946 	0.059589
35.87 	0.058907 	4923 	0.057955
35.91 	0.054394 	4927 	0.053562
35.95 	0.056132 	4917 	0.055040
35.99 	0.061956 	4939 	0.060513
36.03 	0.063524 	4943 	0.062695
36.07 	0.058311 	4939 	0.057244
36.11 	0.060661 	4929 	0.058978
36.15 	0.059121 	4939 	0.058172
36.19 	0.059312 	4940 	0.058245
36.23 	0.053901 	4935 	0.052476
36.27 	0.053401 	4925 	0.051855
36.31 	0.062703 	4928 	0.061871
36.35 	0.059647 	4929 	0.059053
36.39 	0.058728 	4921 	0.057895
36.43 	0.055601 	4928 	0.055363
36.47 	0.059562 	4936 	0.058257
36.51 	0.055950 	4933 	0.055237
36.55 	0.061498 	4927 	0.060309
36.59 	0.058919 	4939 	0.057851
36.63 	0.060637 	4931 	0.059805
36.67 	0.061055 	4930 	0.060223
36.71 	0.059134 	4921 	0.057448
36.75 	0.064320 	4944 	0.063491
36.79 	0.052428 	4921 	0.051357
36.83 	0.054527 	4915 	0.054050
36.87 	0.054814 	4944 	0.053985
36.91 	0.057681 	4941 	0.056594
36.95 	0.056355 	4933 	0.055643
36.99 	0.053090 	4935 	0.052259
37.03 	0.048741 	4924 	0.047908
37.07 	0.054509 	4935 	0.053796
37.11 	0.052888 	4935 	0.052175
37.15 	0.059483 	4909 	0.058528
37.19 	0.053807 	4925 	0.052737
37.23 	0.050834 	4918 	0.050476
37.27 	0.051083 	4894 	0.050006
37.31 	0.056738 	4935 	0.055907
37.35 	0.056298 	4938 	0.055230
37.39 	0.059014 	4931 	0.058183
37.43 	0.060624 	4932 	0.059318
37.47 	0.053763 	4929 	0.053288
37.51 	0.056355 	4933 	0.055148
37.55 	0.056389 	4930 	0.055677
37.59 	0.050458 	4915 	0.049624
37.63 	0.050213 	4919 	0.050094
37.67 	0.051998 	4904 	0.051401
37.71 	0.053561 	4929 	0.052966
37.75 	0.056883 	4940 	0.055697
37.79 	0.052535 	4930 	0.051328
37.83 	0.056504 	4920 	0.055909
37.87 	0.059729 	4939 	0.058780
37.91 	0.051927 	4930 	0.050719
37.95 	0.054257 	4921 	0.053662
37.99 	0.056596 	4912 	0.056000
38.03 	0.055001 	4909 	0.053808
38.07 	0.052964 	4909 	0.052009
38.11 	0.060993 	4935 	0.060043
38.15 	0.060797 	4918 	0.059586
38.19 	0.061866 	4930 	0.061153
38.23 	0.062778 	4938 	0.061948
38.27 	0.060649 	4930 	0.060174
38.31 	0.062716 	4927 	0.061170
38.35 	0.069602 	4928 	0.069008
38.39 	0.065390 	4909 	0.063958
38.43 	0.064280 	4916 	0.063446
38.47 	0.064194 	4907 	0.063000
38.51 	0.061030 	4932 	0.059842
38.55 	0.063412 	4936 	0.062462
38.59 	0.062348 	4924 	0.061396
38.63 	0.062348 	4924 	0.060563
38.67 	0.061171 	4937 	0.060340
38.71 	0.060723 	4924 	0.059771
38.75 	0.056830 	4927 	0.055760
38.79 	0.055533 	4934 	0.054346
38.83 	0.052246 	4919 	0.051413
38.87 	0.057626 	4911 	0.057268
38.91 	0.052825 	4903 	0.051988
38.95 	0.054494 	4918 	0.054255
38.99 	0.049423 	4937 	0.049067
39.03 	0.048845 	4934 	0.048132
39.07 	0.056052 	4924 	0.054981
39.11 	0.058203 	4931 	0.057134
39.15 	0.056358 	4915 	0.054928
39.19 	0.049624 	4917 	0.048790
39.23 	0.055025 	4925 	0.053598
39.27 	0.052342 	4910 	0.051149
39.31 	0.058559 	4884 	0.057959
39.35 	0.054711 	4935 	0.053999
39.39 	0.050314 	4929 	0.049225
39.43 	0.054531 	4933 	0.053937
39.47 	0.050985 	4923 	0.050628
39.51 	0.058286 	4924 	0.057334
39.55 	0.052653 	4919 	0.052177
39.59 	0.057614 	4912 	0.056779
39.63 	0.055059 	4922 	0.054345
39.67 	0.053124 	4913 	0.052767
39.71 	0.053115 	4895 	0.052517
39.75 	0.056006 	4928 	0.055412
39.79 	0.057044 	4926 	0.055974
39.83 	0.057154 	4934 	0.055967
39.87 	0.057665 	4925 	0.056713
39.91 	0.056278 	4922 	0.055564
39.95 	0.051679 	4915 	0.051321
39.99 	0.052109 	4932 	0.050921
40.03 	0.051948 	4928 	0.050383
40.07 	0.055048 	4923 	0.053977
40.11 	0.051871 	4916 	0.050799
40.15 	0.051496 	4913 	0.051138
40.19 	0.058835 	4929 	0.057627
40.23 	0.050284 	4932 	0.049452
40.27 	0.057120 	4937 	0.056408
40.31 	0.051832 	4939 	0.051002
40.35 	0.054686 	4919 	0.053852
40.39 	0.050700 	4931 	0.049492
40.43 	0.058513 	4922 	0.057561
40.47 	0.058764 	4918 	0.057533
40.51 	0.052418 	4922 	0.051704
40.55 	0.042584 	4908 	0.042106
40.59 	0.051246 	4937 	0.050178
40.63 	0.054361 	4930 	0.052916
40.67 	0.053122 	4932 	0.051678
40.71 	0.055961 	4932 	0.055367
40.75 	0.055364 	4931 	0.054889
40.79 	0.053412 	4924 	0.052560
40.83 	0.051136 	4928 	0.049809
40.87 	0.048701 	4928 	0.047869
40.91 	0.051798 	4923 	0.051084
40.95 	0.056992 	4913 	0.056157
40.99 	0.055443 	4924 	0.054253
41.03 	0.049949 	4905 	0.049471
41.07 	0.048884 	4930 	0.048171
41.11 	0.049037 	4935 	0.048088
41.15 	0.043311 	4941 	0.042955
41.19 	0.047667 	4930 	0.047430
41.23 	0.048795 	4939 	0.047728
41.27 	0.048266 	4931 	0.047316
41.31 	0.047030 	4933 	0.046555
41.35 	0.046578 	4938 	0.045728
41.39 	0.048247 	4933 	0.047890
41.43 	0.054169 	4929 	0.053218
41.47 	0.044864 	4926 	0.044507
41.51 	0.053644 	4940 	0.052676
41.55 	0.047011 	4935 	0.046536
41.59 	0.054125 	4933 	0.053294
41.63 	0.055083 	4938 	0.054015
41.67 	0.047976 	4940 	0.047264
41.71 	0.053912 	4934 	0.052606
41.75 	0.051938 	4929 	0.051700
41.79 	0.047735 	4944 	0.047024
41.83 	0.051136 	4928 	0.050423
41.87 	0.047619 	4935 	0.046907
41.91 	0.047812 	4936 	0.047100
41.95 	0.045224 	4931 	0.044630
41.99 	0.046483 	4905 	0.046125
42.03 	0.047783 	4939 	0.047190
42.07 	0.044561 	4937 	0.043850
42.11 	0.049545 	4945 	0.048578
42.15 	0.045768 	4938 	0.045412
42.19 	0.052160 	4908 	0.051444
42.23 	0.051922 	4892 	0.051083
42.27 	0.045548 	4874 	0.045187
42.31 	0.042636 	4855 	0.042516
42.35 	0.047540 	4838 	0.047056
42.39 	0.048501 	4804 	0.047648
42.43 	0.045075 	4792 	0.044708
42.47 	0.049738 	4765 	0.049615
42.51 	0.042800 	4743 	0.042429
42.55 	0.051827 	4708 	0.050831
42.59 	0.048636 	4729 	0.048017
42.63 	0.047356 	4709 	0.046859
42.67 	0.052946 	4684 	0.052071
42.71 	0.044821 	4663 	0.043816
42.75 	0.048300 	4617 	0.047792
42.79 	0.046704 	4582 	0.046065
42.83 	0.043210 	4536 	0.042952
42.87 	0.045343 	4499 	0.044692
42.91 	0.046230 	4456 	0.045704
42.95 	0.039855 	4416 	0.039192
42.99 	0.045610 	4385 	0.044809
43.03 	0.042234 	4333 	0.041558
43.07 	0.050512 	4296 	0.049694
43.11 	0.041833 	4255 	0.041420
43.15 	0.044460 	4206 	0.043903
43.19 	0.050548 	4194 	0.049710
43.23 	0.049109 	4154 	0.048122
43.27 	0.045554 	4105 	0.045269
43.31 	0.053690 	4079 	0.052684
43.35 	0.047123 	4032 	0.046251
43.39 	0.049225 	4002 	0.048494
43.43 	0.047980 	3960 	0.047536
43.47 	0.047437 	3921 	0.046690
43.51 	0.046944 	3877 	0.046188
43.55 	0.049595 	2964 	0.048409
43.59 	0.048683 	1746 	0.047341
43.63 	0.045954 	1001 	0.044784
43.67 	0.045817 	502 	0.043483
43.71 	0.054393 	239 	0.054393
43.75 	0.062500 	16 	0.062500