File: Example_Data/25SC_s1_0026.004.dat
#F C:\frames\spec\25SC_s1_0026.004
#C title =s:26 frm:4 25SC_s1
#C wavelength =0.15406

#S 1  fr_average C:\frames\spec\25SC_s1_0026.004 C:\win32app\speccom\mask.axs chi 0 180 0 360 0.02
#C 2 theta =0.000000 to 180 deg
#C   q   =0.000000 to 81.568 nm^-1
#C  chi  =0.000000 to 360 deg
#C collumns:
#C  1 position (2theta or chi in degrees)
#C  2 average intensity (sum of all counts in the region divided with number of pixels)
#C  3 Number of pixels in region)
#C  4 error (sum of sqrt(intensity) for all pixels divided by number)
#N 4
#L TTh  Int  N_pix  Err
32.99 	0.114754 	61 	0.114754
33.03 	0.048886 	1391 	0.048886
33.07 	0.059024 	2050 	0.058167
33.11 	0.054285 	2579 	0.052922
33.15 	0.059020 	2999 	0.058238
33.19 	0.060742 	3342 	0.059690
33.23 	0.055634 	3523 	0.054637
33.27 	0.059780 	3630 	0.058973
33.31 	0.060109 	3660 	0.059149
33.35 	0.057120 	3694 	0.055508
33.39 	0.062215 	3729 	0.060330
33.43 	0.066738 	3761 	0.065647
33.47 	0.056082 	3798 	0.055311
33.51 	0.056356 	3815 	0.055282
33.55 	0.057507 	3843 	0.056440
33.59 	0.056443 	3880 	0.055839
33.63 	0.064302 	3919 	0.063256
33.67 	0.056399 	3954 	0.055954
33.71 	0.059119 	3975 	0.058825
33.75 	0.054014 	3999 	0.053135
33.79 	0.061123 	4041 	0.060399
33.83 	0.058765 	4050 	0.057898
33.87 	0.062515 	4111 	0.060805
33.91 	0.057363 	4149 	0.056375
33.95 	0.057163 	4181 	0.055879
33.99 	0.058333 	4200 	0.057636
34.03 	0.056550 	4244 	0.055446
34.07 	0.052015 	4268 	0.051740
34.11 	0.058345 	4302 	0.056711
34.15 	0.058185 	4331 	0.057238
34.19 	0.062586 	4362 	0.061646
34.23 	0.058730 	4393 	0.058063
34.27 	0.056536 	4422 	0.055741
34.31 	0.059219 	4458 	0.058825
34.35 	0.055977 	4484 	0.054670
34.39 	0.061084 	4502 	0.060173
34.43 	0.062349 	4539 	0.061703
34.47 	0.055749 	4592 	0.054473
34.51 	0.063178 	4606 	0.062013
34.55 	0.050829 	4643 	0.049294
34.59 	0.060107 	4675 	0.058729
34.63 	0.054352 	4710 	0.053482
34.67 	0.052942 	4741 	0.052572
34.71 	0.054133 	4766 	0.053376
34.75 	0.053661 	4808 	0.053051
34.79 	0.064262 	4824 	0.062683
34.83 	0.054504 	4862 	0.053762
34.87 	0.057108 	4868 	0.056366
34.91 	0.062065 	4882 	0.060865
34.95 	0.058487 	4890 	0.057528
34.99 	0.059833 	4897 	0.058497
35.03 	0.061906 	4943 	0.060602
35.07 	0.061741 	4940 	0.060911
35.11 	0.058015 	4947 	0.057304
35.15 	0.053271 	4937 	0.052322
35.19 	0.055241 	4942 	0.054411
35.23 	0.051769 	4945 	0.051059
35.27 	0.057195 	4948 	0.056484
35.31 	0.058382 	4933 	0.058026
35.35 	0.049777 	4942 	0.048948
35.39 	0.055814 	4945 	0.055222
35.43 	0.055342 	4933 	0.054016
35.47 	0.060434 	4931 	0.059445
35.51 	0.052172 	4926 	0.051459
35.55 	0.045905 	4945 	0.045668
35.59 	0.055410 	4945 	0.054580
35.63 	0.063120 	4943 	0.061460
35.67 	0.059085 	4942 	0.058256
35.71 	0.056917 	4937 	0.055849
35.75 	0.058812 	4931 	0.058693
35.79 	0.055961 	4932 	0.055011
35.83 	0.059846 	4946 	0.058544
35.87 	0.054235 	4923 	0.053640
35.91 	0.058250 	4927 	0.056923
35.95 	0.061216 	4917 	0.059787
35.99 	0.057906 	4939 	0.057076
36.03 	0.052802 	4943 	0.051735
36.07 	0.056084 	4939 	0.055017
36.11 	0.056807 	4929 	0.056212
36.15 	0.058311 	4939 	0.057600
36.19 	0.053846 	4940 	0.053490
36.23 	0.056130 	4935 	0.054943
36.27 	0.055635 	4925 	0.055159
36.31 	0.058239 	4928 	0.056654
36.35 	0.058835 	4929 	0.057766
36.39 	0.061370 	4921 	0.060774
36.43 	0.062094 	4928 	0.061143
36.47 	0.058752 	4936 	0.057565
36.51 	0.056558 	4933 	0.055470
36.55 	0.056018 	4927 	0.054710
36.59 	0.056287 	4939 	0.055101
36.63 	0.056784 	4931 	0.056190
36.67 	0.054970 	4930 	0.054613
36.71 	0.061573 	4921 	0.060621
36.75 	0.057646 	4944 	0.056816
36.79 	0.057305 	4921 	0.056710
36.83 	0.053510 	4915 	0.052179
36.87 	0.052589 	4944 	0.051641
36.91 	0.057478 	4941 	0.056174
36.95 	0.052504 	4933 	0.051554
36.99 	0.051469 	4935 	0.050282
37.03 	0.060114 	4924 	0.059281
37.07 	0.054306 	4935 	0.053475
37.11 	0.055724 	4935 	0.054656
37.15 	0.053168 	4909 	0.052452
37.19 	0.049137 	4925 	0.048542
37.23 	0.053884 	4918 	0.052554
37.27 	0.053944 	4894 	0.052986
37.31 	0.055927 	4935 	0.054621
37.35 	0.056906 	4938 	0.056075
37.39 	0.048063 	4931 	0.047350
37.43 	0.053122 	4932 	0.052647
37.47 	0.054981 	4929 	0.053792
37.51 	0.054733 	4933 	0.054021
37.55 	0.057201 	4930 	0.055874
37.59 	0.052696 	4915 	0.051981
37.63 	0.050417 	4919 	0.049821
37.67 	0.055873 	4904 	0.055395
37.71 	0.058227 	4929 	0.057157
37.75 	0.049798 	4940 	0.049205
37.79 	0.054564 	4930 	0.053732
37.83 	0.054472 	4920 	0.053519
37.87 	0.057906 	4939 	0.057076
37.91 	0.049696 	4930 	0.049339
37.95 	0.057712 	4921 	0.056641
37.99 	0.049064 	4912 	0.048229
38.03 	0.060501 	4909 	0.059069
38.07 	0.058464 	4909 	0.057748
38.11 	0.056332 	4935 	0.055383
38.15 	0.057950 	4918 	0.057355
38.19 	0.059635 	4930 	0.058803
38.23 	0.055893 	4938 	0.054944
38.27 	0.064503 	4930 	0.063315
38.31 	0.063730 	4927 	0.062779
38.35 	0.060471 	4928 	0.059758
38.39 	0.065798 	4909 	0.064246
38.43 	0.064687 	4916 	0.063495
38.47 	0.063583 	4907 	0.062608
38.51 	0.065896 	4932 	0.064313
38.55 	0.062196 	4936 	0.061128
38.59 	0.060317 	4924 	0.059722
38.63 	0.057271 	4924 	0.056299
38.67 	0.050030 	4937 	0.049318
38.71 	0.059504 	4924 	0.057958
38.75 	0.053582 	4927 	0.052631
38.79 	0.057762 	4934 	0.056912
38.83 	0.058345 	4919 	0.057512
38.87 	0.046834 	4911 	0.046357
38.91 	0.054864 	4903 	0.053789
38.95 	0.058154 	4918 	0.056724
38.99 	0.055499 	4937 	0.054550
39.03 	0.051277 	4934 	0.050327
39.07 	0.046507 	4924 	0.045655
39.11 	0.059217 	4931 	0.057910
39.15 	0.056968 	4915 	0.056611
39.19 	0.047793 	4917 	0.046940
39.23 	0.052386 	4925 	0.051791
39.27 	0.059878 	4910 	0.059401
39.31 	0.049345 	4884 	0.048865
39.35 	0.046606 	4935 	0.046012
39.39 	0.055386 	4929 	0.054317
39.43 	0.048855 	4933 	0.048380
39.47 	0.052813 	4923 	0.052337
39.51 	0.051990 	4924 	0.051276
39.55 	0.051637 	4919 	0.050922
39.59 	0.051507 	4912 	0.050910
39.63 	0.058716 	4922 	0.057645
39.67 	0.057195 	4913 	0.055626
39.71 	0.058018 	4895 	0.056941
39.75 	0.053774 	4928 	0.053180
39.79 	0.055420 	4926 	0.054588
39.83 	0.053912 	4934 	0.052843
39.87 	0.050761 	4925 	0.049315
39.91 	0.060951 	4922 	0.060118
39.95 	0.056562 	4915 	0.055370
39.99 	0.049473 	4932 	0.048998
40.03 	0.052557 	4928 	0.052200
40.07 	0.058501 	4923 	0.056954
40.11 	0.053092 	4916 	0.052496
40.15 	0.054346 	4913 	0.052915
40.19 	0.054575 	4929 	0.053743
40.23 	0.051298 	4932 	0.050466
40.27 	0.056107 	4937 	0.055039
40.31 	0.052845 	4939 	0.052252
40.35 	0.057125 	4919 	0.056173
40.39 	0.045630 	4931 	0.044561
40.43 	0.050792 	4922 	0.049959
40.47 	0.054087 	4918 	0.053611
40.51 	0.042666 	4922 	0.042071
40.55 	0.047270 	4908 	0.046554
40.59 	0.053474 	4937 	0.052999
40.63 	0.057809 	4930 	0.056265
40.67 	0.058191 	4932 	0.057241
40.71 	0.049473 	4932 	0.048879
40.75 	0.053539 	4931 	0.052351
40.79 	0.047522 	4924 	0.046928
40.83 	0.049919 	4928 	0.049324
40.87 	0.049513 	4928 	0.049038
40.91 	0.055657 	4923 	0.055062
40.95 	0.049054 	4913 	0.048577
40.99 	0.044882 	4924 	0.044644
41.03 	0.051988 	4905 	0.051032
41.07 	0.055375 	4930 	0.054168
41.11 	0.053293 	4935 	0.052699
41.15 	0.047561 	4941 	0.045783
41.19 	0.052535 	4930 	0.051823
41.23 	0.046366 	4939 	0.045654
41.27 	0.051916 	4931 	0.050610
41.31 	0.050274 	4933 	0.049680
41.35 	0.049615 	4938 	0.048903
41.39 	0.043381 	4933 	0.042669
41.43 	0.045648 	4929 	0.045173
41.47 	0.049736 	4926 	0.049260
41.51 	0.055061 	4940 	0.053994
41.55 	0.049443 	4935 	0.048018
41.59 	0.044395 	4933 	0.044157
41.63 	0.043945 	4938 	0.043451
41.67 	0.048785 	4940 	0.048193
41.71 	0.046007 	4934 	0.045532
41.75 	0.043822 	4929 	0.043466
41.79 	0.047937 	4944 	0.047344
41.83 	0.052151 	4928 	0.051200
41.87 	0.055522 	4935 	0.054335
41.91 	0.048622 	4936 	0.047910
41.95 	0.048063 	4931 	0.047350
41.99 	0.047299 	4905 	0.046582
42.03 	0.048998 	4939 	0.048168
42.07 	0.043549 	4937 	0.042718
42.11 	0.045501 	4945 	0.045027
42.15 	0.045970 	4938 	0.045258
42.19 	0.048900 	4908 	0.048184
42.23 	0.040270 	4892 	0.039791
42.27 	0.049651 	4874 	0.048690
42.31 	0.043872 	4855 	0.043510
42.35 	0.046300 	4838 	0.045675
42.39 	0.045587 	4804 	0.045465
42.43 	0.046745 	4792 	0.046011
42.47 	0.048478 	4765 	0.048110
42.51 	0.045962 	4743 	0.045592
42.55 	0.049915 	4708 	0.049542
42.59 	0.040178 	4729 	0.040054
42.63 	0.049267 	4709 	0.048645
42.67 	0.042058 	4684 	0.041558
42.71 	0.046108 	4663 	0.045354
42.75 	0.047867 	4617 	0.046831
42.79 	0.046486 	4582 	0.045591
42.83 	0.043651 	4536 	0.043113
42.87 	0.046232 	4499 	0.045972
42.91 	0.053187 	4456 	0.052376
42.95 	0.046422 	4416 	0.046024
42.99 	0.045610 	4385 	0.044942
43.03 	0.050312 	4333 	0.049500
43.07 	0.043762 	4296 	0.043353
43.11 	0.042538 	4255 	0.041850
43.15 	0.045411 	4206 	0.044436
43.19 	0.054602 	4194 	0.053461
43.23 	0.044776 	4154 	0.044353
43.27 	0.054080 	4105 	0.052630
43.31 	0.043638 	4079 	0.043495
43.35 	0.043651 	4032 	0.043360
43.39 	0.043478 	4002 	0.042600
43.43 	0.045960 	3960 	0.044875
43.47 	0.040806 	3921 	0.040358
43.51 	0.047201 	3877 	0.046597
43.55 	0.039474 	2964 	0.038881
43.59 	0.049255 	1746 	0.048920
43.63 	0.037962 	1001 	0.037962
43.67 	0.039841 	502 	0.039841
43.71 	0.041841 	239 	0.041841
43.75 	0.062500 	16 	0.062500