File: Example_Data/25SC_s1_0035.000.dat
#F C:\frames\spec\25SC_s1_0035.000
#C title =s:35 frm:0 25SC_s1
#C wavelength =0.15406

#S 1  fr_average C:\frames\spec\25SC_s1_0035.000 C:\win32app\speccom\mask.axs chi 0 180 0 360 0.02
#C 2 theta =0.000000 to 180 deg
#C   q   =0.000000 to 81.568 nm^-1
#C  chi  =0.000000 to 360 deg
#C collumns:
#C  1 position (2theta or chi in degrees)
#C  2 average intensity (sum of all counts in the region divided with number of pixels)
#C  3 Number of pixels in region)
#C  4 error (sum of sqrt(intensity) for all pixels divided by number)
#N 4
#L TTh  Int  N_pix  Err
32.99 	0.049180 	61 	0.049180
33.03 	0.064702 	1391 	0.063017
33.07 	0.060976 	2050 	0.058975
33.11 	0.067080 	2579 	0.065717
33.15 	0.063688 	2999 	0.062711
33.19 	0.057451 	3342 	0.057100
33.23 	0.052796 	3523 	0.052131
33.27 	0.056474 	3630 	0.055183
33.31 	0.051366 	3660 	0.050566
33.35 	0.063617 	3694 	0.062507
33.39 	0.054438 	3729 	0.053967
33.43 	0.055836 	3761 	0.054902
33.47 	0.061611 	3798 	0.060352
33.51 	0.064220 	3815 	0.062838
33.55 	0.060370 	3843 	0.059150
33.59 	0.059536 	3880 	0.058479
33.63 	0.057668 	3919 	0.057070
33.67 	0.051593 	3954 	0.051445
33.71 	0.061132 	3975 	0.060395
33.75 	0.065766 	3999 	0.064155
33.79 	0.060381 	4041 	0.058352
33.83 	0.060000 	4050 	0.058819
33.87 	0.053272 	4111 	0.052844
33.91 	0.056640 	4149 	0.055511
33.95 	0.054532 	4181 	0.053552
33.99 	0.056190 	4200 	0.055331
34.03 	0.064562 	4244 	0.062883
34.07 	0.063027 	4268 	0.062204
34.11 	0.051604 	4302 	0.050378
34.15 	0.056569 	4331 	0.055735
34.19 	0.057772 	4362 	0.055892
34.23 	0.058730 	4393 	0.058196
34.27 	0.059701 	4422 	0.058774
34.31 	0.051817 	4458 	0.051423
34.35 	0.048617 	4484 	0.047572
34.39 	0.053088 	4502 	0.052047
34.43 	0.060366 	4539 	0.058430
34.47 	0.058362 	4592 	0.057725
34.51 	0.057099 	4606 	0.055934
34.55 	0.051045 	4643 	0.050540
34.59 	0.053048 	4675 	0.051920
34.63 	0.056476 	4710 	0.055460
34.67 	0.057794 	4741 	0.055940
34.71 	0.057910 	4766 	0.057173
34.75 	0.058860 	4808 	0.058251
34.79 	0.056592 	4824 	0.055985
34.83 	0.051419 	4862 	0.050556
34.87 	0.048891 	4868 	0.048289
34.91 	0.053462 	4882 	0.052982
34.95 	0.062577 	4890 	0.060520
34.99 	0.055136 	4897 	0.054298
35.03 	0.055027 	4943 	0.053842
35.07 	0.057895 	4940 	0.057183
35.11 	0.057206 	4947 	0.056614
35.15 	0.057930 	4937 	0.056981
35.19 	0.053420 	4942 	0.053064
35.23 	0.056623 	4945 	0.055201
35.27 	0.058205 	4948 	0.057377
35.31 	0.052504 	4933 	0.052029
35.35 	0.054431 	4942 	0.053957
35.39 	0.054398 	4945 	0.053076
35.43 	0.057369 	4933 	0.056300
35.47 	0.060637 	4931 	0.059568
35.51 	0.055826 	4926 	0.054637
35.55 	0.058847 	4945 	0.058255
35.59 	0.059454 	4945 	0.057322
35.63 	0.064940 	4943 	0.063163
35.67 	0.061311 	4942 	0.060126
35.71 	0.059348 	4937 	0.058142
35.75 	0.047049 	4931 	0.046455
35.79 	0.055556 	4932 	0.054843
35.83 	0.052770 	4946 	0.051822
35.87 	0.058095 	4923 	0.057123
35.91 	0.059468 	4927 	0.058755
35.95 	0.056132 	4917 	0.055517
35.99 	0.051427 	4939 	0.050241
36.03 	0.058871 	4943 	0.057667
36.07 	0.060944 	4939 	0.059995
36.11 	0.055995 	4929 	0.055163
36.15 	0.066613 	4939 	0.065901
36.19 	0.059514 	4940 	0.058447
36.23 	0.060993 	4935 	0.059806
36.27 	0.062335 	4925 	0.061502
36.31 	0.053369 	4928 	0.052299
36.35 	0.054169 	4929 	0.053100
36.39 	0.055883 	4921 	0.055288
36.43 	0.056818 	4928 	0.055867
36.47 	0.055511 	4936 	0.054275
36.51 	0.054531 	4933 	0.053462
36.55 	0.061701 	4927 	0.060512
36.59 	0.055882 	4939 	0.054696
36.63 	0.060434 	4931 	0.059721
36.67 	0.056389 	4930 	0.055201
36.71 	0.059338 	4921 	0.058623
36.75 	0.055623 	4944 	0.054912
36.79 	0.060557 	4921 	0.060081
36.83 	0.060020 	4915 	0.059424
36.87 	0.057241 	4944 	0.056155
36.91 	0.057276 	4941 	0.055972
36.95 	0.055950 	4933 	0.054406
36.99 	0.061601 	4935 	0.060394
37.03 	0.051381 	4924 	0.050410
37.07 	0.052685 	4935 	0.052091
37.11 	0.053901 	4935 	0.053545
37.15 	0.060094 	4909 	0.058900
37.19 	0.054213 	4925 	0.053500
37.23 	0.057340 	4918 	0.056249
37.27 	0.054352 	4894 	0.053375
37.31 	0.051672 	4935 	0.050960
37.35 	0.054475 	4938 	0.053764
37.39 	0.056378 	4931 	0.055903
37.43 	0.058597 	4932 	0.057172
37.47 	0.052749 	4929 	0.052274
37.51 	0.061423 	4933 	0.060236
37.55 	0.062677 	4930 	0.061252
37.59 	0.054323 	4915 	0.053966
37.63 	0.058345 	4919 	0.057869
37.67 	0.059339 	4904 	0.058503
37.71 	0.052343 	4929 	0.051373
37.75 	0.057692 	4940 	0.056981
37.79 	0.054970 	4930 	0.053663
37.83 	0.054268 	4920 	0.053316
37.87 	0.052237 	4939 	0.051644
37.91 	0.056187 	4930 	0.055474
37.95 	0.061166 	4921 	0.060333
37.99 	0.054764 	4912 	0.053929
38.03 	0.053982 	4909 	0.053505
38.07 	0.052557 	4909 	0.051960
38.11 	0.056738 	4935 	0.055432
38.15 	0.064864 	4918 	0.063434
38.19 	0.062880 	4930 	0.061930
38.23 	0.071284 	4938 	0.068991
38.27 	0.068560 	4930 	0.067728
38.31 	0.069819 	4927 	0.068155
38.35 	0.072240 	4928 	0.070695
38.39 	0.076798 	4909 	0.075127
38.43 	0.075468 	4916 	0.073680
38.47 	0.077644 	4907 	0.075854
38.51 	0.091038 	4932 	0.088900
38.55 	0.082455 	4936 	0.080300
38.59 	0.081032 	4924 	0.079247
38.63 	0.076361 	4924 	0.075409
38.67 	0.064209 	4937 	0.063378
38.71 	0.068846 	4924 	0.067657
38.75 	0.067384 	4927 	0.066552
38.79 	0.061816 	4934 	0.060629
38.83 	0.065257 	4919 	0.063828
38.87 	0.053757 	4911 	0.053399
38.91 	0.054252 	4903 	0.053416
38.95 	0.053680 	4918 	0.052847
38.99 	0.047802 	4937 	0.047090
39.03 	0.049250 	4934 	0.048656
39.07 	0.050366 	4924 	0.049652
39.11 	0.043805 	4931 	0.043448
39.15 	0.050661 	4915 	0.050185
39.19 	0.044946 	4917 	0.044231
39.23 	0.044061 	4925 	0.043704
39.27 	0.048880 	4910 	0.047806
39.31 	0.045455 	4884 	0.044475
39.35 	0.045795 	4935 	0.044964
39.39 	0.043417 	4929 	0.042941
39.43 	0.048855 	4933 	0.047905
39.47 	0.046110 	4923 	0.045634
39.51 	0.046507 	4924 	0.045912
39.55 	0.045944 	4919 	0.045111
39.59 	0.038477 	4912 	0.038119
39.63 	0.044291 	4922 	0.043696
39.67 	0.045797 	4913 	0.045201
39.71 	0.043309 	4895 	0.042711
39.75 	0.045455 	4928 	0.044722
39.79 	0.042225 	4926 	0.042106
39.83 	0.047831 	4934 	0.047119
39.87 	0.044670 	4925 	0.044075
39.91 	0.049167 	4922 	0.048453
39.95 	0.043744 	4915 	0.043386
39.99 	0.048256 	4932 	0.047781
40.03 	0.043019 	4928 	0.042663
40.07 	0.043266 	4923 	0.042671
40.11 	0.050448 	4916 	0.050209
40.15 	0.040301 	4913 	0.039467
40.19 	0.042402 	4929 	0.041927
40.23 	0.043187 	4932 	0.042475
40.27 	0.040713 	4937 	0.040120
40.31 	0.048188 	4939 	0.047694
40.35 	0.045538 	4919 	0.045180
40.39 	0.045832 	4931 	0.044763
40.43 	0.044088 	4922 	0.043731
40.47 	0.039447 	4918 	0.039328
40.51 	0.043275 	4922 	0.042918
40.55 	0.039324 	4908 	0.038846
40.59 	0.036257 	4937 	0.035664
40.63 	0.041988 	4930 	0.041631
40.67 	0.039132 	4932 	0.038776
40.71 	0.043390 	4932 	0.042677
40.75 	0.041371 	4931 	0.041015
40.79 	0.041633 	4924 	0.041514
40.83 	0.048093 	4928 	0.046904
40.87 	0.041396 	4928 	0.040564
40.91 	0.037376 	4923 	0.036900
40.95 	0.042337 	4913 	0.041383
40.99 	0.042039 	4924 	0.041444
41.03 	0.044444 	4905 	0.043967
41.07 	0.043408 	4930 	0.043170
41.11 	0.041135 	4935 	0.040897
41.15 	0.044323 	4941 	0.043849
41.19 	0.045030 	4930 	0.044436
41.23 	0.044746 	4939 	0.044271
41.27 	0.040763 	4931 	0.040406
41.31 	0.040746 	4933 	0.040509
41.35 	0.040300 	4938 	0.039825
41.39 	0.038516 	4933 	0.038160
41.43 	0.040779 	4929 	0.040660
41.47 	0.038571 	4926 	0.038333
41.51 	0.038866 	4940 	0.038273
41.55 	0.041743 	4935 	0.041149
41.59 	0.036084 	4933 	0.035846
41.63 	0.034832 	4938 	0.034357
41.67 	0.038462 	4940 	0.038106
41.71 	0.046007 	4934 	0.045651
41.75 	0.038953 	4929 	0.038597
41.79 	0.040858 	4944 	0.040502
41.83 	0.035308 	4928 	0.035190
41.87 	0.035866 	4935 	0.035273
41.91 	0.038493 	4936 	0.038255
41.95 	0.041371 	4931 	0.041133
41.99 	0.037717 	4905 	0.037000
42.03 	0.037255 	4939 	0.036543
42.07 	0.043346 	4937 	0.042753
42.11 	0.040243 	4945 	0.039887
42.15 	0.037667 	4938 	0.036955
42.19 	0.041972 	4908 	0.041256
42.23 	0.036795 	4892 	0.035957
42.27 	0.039188 	4874 	0.038827
42.31 	0.038105 	4855 	0.037622
42.35 	0.041959 	4838 	0.041717
42.39 	0.040175 	4804 	0.040175
42.43 	0.036102 	4792 	0.035613
42.47 	0.041343 	4765 	0.040851
42.51 	0.038583 	4743 	0.038336
42.55 	0.038870 	4708 	0.038248
42.59 	0.033834 	4729 	0.033586
42.63 	0.039286 	4709 	0.038913
42.67 	0.034586 	4684 	0.034461
42.71 	0.039245 	4663 	0.038240
42.75 	0.040069 	4617 	0.039689
42.79 	0.037538 	4582 	0.037410
42.83 	0.037919 	4536 	0.037531
42.87 	0.038898 	4499 	0.038507
42.91 	0.035682 	4456 	0.035682
42.95 	0.035779 	4416 	0.035116
42.99 	0.035804 	4385 	0.035537
43.03 	0.035310 	4333 	0.035310
43.07 	0.033985 	4296 	0.033849
43.11 	0.037133 	4255 	0.036307
43.15 	0.038992 	4206 	0.038435
43.19 	0.039819 	4194 	0.039260
43.23 	0.032258 	4154 	0.031835
43.27 	0.039708 	4105 	0.039280
43.31 	0.037754 	4079 	0.037467
43.35 	0.037202 	4032 	0.036767
43.39 	0.038981 	4002 	0.038249
43.43 	0.031566 	3960 	0.031418
43.47 	0.038001 	3921 	0.037254
43.51 	0.045396 	3877 	0.044943
43.55 	0.037449 	2964 	0.037252
43.59 	0.033792 	1746 	0.033792
43.63 	0.035964 	1001 	0.035379
43.67 	0.021912 	502 	0.021912
43.71 	0.046025 	239 	0.041123
43.75 	0.062500 	16 	0.062500