File: Example_Data/25SC_s1_0026.002.dat
#F C:\frames\spec\25SC_s1_0026.002
#C title =s:26 frm:2 25SC_s1
#C wavelength =0.15406

#S 1  fr_average C:\frames\spec\25SC_s1_0026.002 C:\win32app\speccom\mask.axs chi 0 180 0 360 0.02
#C 2 theta =0.000000 to 180 deg
#C   q   =0.000000 to 81.568 nm^-1
#C  chi  =0.000000 to 360 deg
#C collumns:
#C  1 position (2theta or chi in degrees)
#C  2 average intensity (sum of all counts in the region divided with number of pixels)
#C  3 Number of pixels in region)
#C  4 error (sum of sqrt(intensity) for all pixels divided by number)
#N 4
#L TTh  Int  N_pix  Err
32.99 	0.049180 	61 	0.049180
33.03 	0.055356 	1391 	0.054092
33.07 	0.044390 	2050 	0.043533
33.11 	0.061264 	2579 	0.060583
33.15 	0.059687 	2999 	0.058124
33.19 	0.057451 	3342 	0.056370
33.23 	0.055067 	3523 	0.053903
33.27 	0.056749 	3630 	0.055109
33.31 	0.065027 	3660 	0.064387
33.35 	0.059556 	3694 	0.058446
33.39 	0.060606 	3729 	0.059978
33.43 	0.065142 	3761 	0.063896
33.47 	0.057662 	3798 	0.055965
33.51 	0.046134 	3815 	0.045519
33.55 	0.062711 	3843 	0.061492
33.59 	0.062113 	3880 	0.061057
33.63 	0.064047 	3919 	0.061805
33.67 	0.061963 	3954 	0.061074
33.71 	0.064906 	3975 	0.063285
33.75 	0.057764 	3999 	0.056422
33.79 	0.055184 	4041 	0.054025
33.83 	0.057778 	4050 	0.056765
33.87 	0.069813 	4111 	0.068673
33.91 	0.055435 	4149 	0.054424
33.95 	0.055489 	4181 	0.054345
33.99 	0.055714 	4200 	0.054738
34.03 	0.056786 	4244 	0.055958
34.07 	0.062090 	4268 	0.061129
34.11 	0.058577 	4302 	0.057760
34.15 	0.061879 	4331 	0.060933
34.19 	0.056396 	4362 	0.054919
34.23 	0.051901 	4393 	0.050434
34.27 	0.062641 	4422 	0.061317
34.31 	0.056303 	4458 	0.055778
34.35 	0.058876 	4484 	0.057809
34.39 	0.060195 	4502 	0.059155
34.43 	0.055299 	4539 	0.054653
34.47 	0.055314 	4592 	0.054676
34.51 	0.053626 	4606 	0.052354
34.55 	0.049322 	4643 	0.048691
34.59 	0.060749 	4675 	0.059496
34.63 	0.060722 	4710 	0.058981
34.67 	0.054419 	4741 	0.053430
34.71 	0.058749 	4766 	0.057643
34.75 	0.061356 	4808 	0.060138
34.79 	0.064677 	4824 	0.063341
34.83 	0.055533 	4862 	0.054569
34.87 	0.055875 	4868 	0.054171
34.91 	0.057968 	4882 	0.057008
34.95 	0.057669 	4890 	0.056710
34.99 	0.054319 	4897 	0.052505
35.03 	0.063322 	4943 	0.061525
35.07 	0.050810 	4940 	0.050098
35.11 	0.056196 	4947 	0.055722
35.15 	0.049423 	4937 	0.048474
35.19 	0.061311 	4942 	0.060244
35.23 	0.054196 	4945 	0.053722
35.27 	0.053557 	4948 	0.052847
35.31 	0.066491 	4933 	0.064710
35.35 	0.061918 	4942 	0.060377
35.39 	0.064105 	4945 	0.062802
35.43 	0.061220 	4933 	0.060152
35.47 	0.056581 	4931 	0.055274
35.51 	0.056435 	4926 	0.055841
35.55 	0.063094 	4945 	0.062265
35.59 	0.057432 	4945 	0.056839
35.63 	0.063322 	4943 	0.062492
35.67 	0.054634 	4942 	0.053448
35.71 	0.055904 	4937 	0.054817
35.75 	0.057189 	4931 	0.056239
35.79 	0.056367 	4932 	0.055298
35.83 	0.060857 	4946 	0.059791
35.87 	0.051595 	4923 	0.050881
35.91 	0.058250 	4927 	0.057656
35.95 	0.059386 	4917 	0.058552
35.99 	0.057299 	4939 	0.056232
36.03 	0.053004 	4943 	0.052037
36.07 	0.056287 	4939 	0.055575
36.11 	0.060661 	4929 	0.059354
36.15 	0.058109 	4939 	0.056785
36.19 	0.058097 	4940 	0.056437
36.23 	0.050253 	4935 	0.049185
36.27 	0.055025 	4925 	0.053717
36.31 	0.063312 	4928 	0.062004
36.35 	0.058024 	4929 	0.057073
36.39 	0.054054 	4921 	0.052983
36.43 	0.059253 	4928 	0.058283
36.47 	0.057131 	4936 	0.056182
36.51 	0.058585 	4933 	0.057754
36.55 	0.056627 	4927 	0.056151
36.59 	0.057502 	4939 	0.056197
36.63 	0.061042 	4931 	0.059854
36.67 	0.057404 	4930 	0.056453
36.71 	0.056086 	4921 	0.055491
36.75 	0.057443 	4944 	0.056140
36.79 	0.054664 	4921 	0.053830
36.83 	0.048627 	4915 	0.048011
36.87 	0.056432 	4944 	0.055247
36.91 	0.050597 	4941 	0.049748
36.95 	0.051693 	4933 	0.051336
36.99 	0.051672 	4935 	0.051197
37.03 	0.051381 	4924 	0.050905
37.07 	0.054711 	4935 	0.053880
37.11 	0.056130 	4935 	0.055180
37.15 	0.060297 	4909 	0.059581
37.19 	0.050152 	4925 	0.049162
37.23 	0.053680 	4918 	0.052470
37.27 	0.056191 	4894 	0.055593
37.31 	0.052482 	4935 	0.051889
37.35 	0.053868 	4938 	0.053512
37.39 	0.052119 	4931 	0.051050
37.43 	0.052717 	4932 	0.051886
37.47 	0.047271 	4929 	0.046439
37.51 	0.056152 	4933 	0.055321
37.55 	0.048884 	4930 	0.048171
37.59 	0.057375 	4915 	0.056779
37.63 	0.051433 	4919 	0.050838
37.67 	0.048940 	4904 	0.048462
37.71 	0.050314 	4929 	0.049344
37.75 	0.050810 	4940 	0.050098
37.79 	0.054767 	4930 	0.054410
37.83 	0.055081 	4920 	0.054486
37.87 	0.052237 	4939 	0.051526
37.91 	0.054767 	4930 	0.054173
37.95 	0.052632 	4921 	0.051679
37.99 	0.049471 	4912 	0.048517
38.03 	0.053779 	4909 	0.053421
38.07 	0.052557 	4909 	0.051483
38.11 	0.054306 	4935 	0.053831
38.15 	0.049614 	4918 	0.049256
38.19 	0.062069 	4930 	0.061218
38.23 	0.057513 	4938 	0.056920
38.27 	0.058215 	4930 	0.057146
38.31 	0.059874 	4927 	0.058685
38.35 	0.056615 	4928 	0.055902
38.39 	0.060297 	4909 	0.059343
38.43 	0.060822 	4916 	0.059511
38.47 	0.063583 	4907 	0.062369
38.51 	0.063463 	4932 	0.061563
38.55 	0.061994 	4936 	0.061025
38.59 	0.058489 	4924 	0.057161
38.63 	0.057880 	4924 	0.056452
38.67 	0.058335 	4937 	0.057623
38.71 	0.056864 	4924 	0.055794
38.75 	0.053379 	4927 	0.052409
38.79 	0.052088 	4934 	0.051256
38.83 	0.049400 	4919 	0.048448
38.87 	0.052331 	4911 	0.051238
38.91 	0.050785 	4903 	0.049352
38.95 	0.046970 	4918 	0.046375
38.99 	0.045777 	4937 	0.045302
39.03 	0.050872 	4934 	0.049289
39.07 	0.046913 	4924 	0.045485
39.11 	0.043196 	4931 	0.042602
39.15 	0.050458 	4915 	0.049981
39.19 	0.051047 	4917 	0.050571
39.23 	0.042437 	4925 	0.042080
39.27 	0.048676 	4910 	0.048080
39.31 	0.047502 	4884 	0.046423
39.35 	0.044580 	4935 	0.043749
39.39 	0.045445 	4929 	0.044613
39.43 	0.038922 	4933 	0.038447
39.47 	0.050173 	4923 	0.049935
39.51 	0.050569 	4924 	0.049498
39.55 	0.045131 	4919 	0.044417
39.59 	0.045195 	4912 	0.044718
39.63 	0.048557 	4922 	0.048200
39.67 	0.041115 	4913 	0.040996
39.71 	0.043105 	4895 	0.042627
39.75 	0.045049 	4928 	0.044454
39.79 	0.047503 	4926 	0.047384
39.83 	0.050466 	4934 	0.049635
39.87 	0.045279 	4925 	0.044447
39.91 	0.055059 	4922 	0.054583
39.95 	0.045168 	4915 	0.044314
39.99 	0.042376 	4932 	0.041664
40.03 	0.045455 	4928 	0.045098
40.07 	0.049157 	4923 	0.048562
40.11 	0.047396 	4916 	0.046800
40.15 	0.044372 	4913 	0.043537
40.19 	0.045445 	4929 	0.044732
40.23 	0.047851 	4932 	0.047494
40.27 	0.039903 	4937 	0.039547
40.31 	0.040292 	4939 	0.040054
40.35 	0.046757 	4919 	0.045805
40.39 	0.048266 	4931 	0.047672
40.43 	0.042259 	4922 	0.041664
40.47 	0.042090 	4918 	0.041733
40.51 	0.044088 	4922 	0.043969
40.55 	0.042787 	4908 	0.042191
40.59 	0.037675 	4937 	0.037556
40.63 	0.040974 	4930 	0.040122
40.67 	0.039335 	4932 	0.038979
40.71 	0.042782 	4932 	0.042188
40.75 	0.038126 	4931 	0.037889
40.79 	0.041227 	4924 	0.040989
40.83 	0.043831 	4928 	0.043475
40.87 	0.041193 	4928 	0.040837
40.91 	0.039001 	4923 	0.038644
40.95 	0.042540 	4913 	0.041944
40.99 	0.042039 	4924 	0.041563
41.03 	0.041794 	4905 	0.041316
41.07 	0.039148 	4930 	0.038673
41.11 	0.042553 	4935 	0.041960
41.15 	0.047561 	4941 	0.046731
41.19 	0.038134 	4930 	0.037659
41.23 	0.038874 	4939 	0.038281
41.27 	0.041574 	4931 	0.040742
41.31 	0.041760 	4933 	0.041166
41.35 	0.044755 	4938 	0.044518
41.39 	0.039732 	4933 	0.039020
41.43 	0.042402 	4929 	0.041689
41.47 	0.040398 	4926 	0.039684
41.51 	0.043117 	4940 	0.042880
41.55 	0.040122 	4935 	0.039765
41.59 	0.039732 	4933 	0.039257
41.63 	0.041312 	4938 	0.040838
41.67 	0.041700 	4940 	0.041226
41.71 	0.039927 	4934 	0.039195
41.75 	0.042605 	4929 	0.041773
41.79 	0.040453 	4944 	0.039861
41.83 	0.042005 	4928 	0.041529
41.87 	0.040324 	4935 	0.039493
41.91 	0.039911 	4936 	0.039317
41.95 	0.039140 	4931 	0.039140
41.99 	0.035066 	4905 	0.034350
42.03 	0.039684 	4939 	0.039447
42.07 	0.040916 	4937 	0.040322
42.11 	0.041860 	4945 	0.041387
42.15 	0.041717 	4938 	0.041243
42.19 	0.039527 	4908 	0.039050
42.23 	0.034546 	4892 	0.034067
42.27 	0.041239 	4874 	0.040999
42.31 	0.037281 	4855 	0.037040
42.35 	0.035138 	4838 	0.034896
42.39 	0.037052 	4804 	0.036687
42.43 	0.037771 	4792 	0.037282
42.47 	0.037356 	4765 	0.036618
42.51 	0.033945 	4743 	0.033698
42.55 	0.039720 	4708 	0.039471
42.59 	0.036794 	4729 	0.036670
42.63 	0.045445 	4709 	0.045196
42.67 	0.037575 	4684 	0.037325
42.71 	0.040317 	4663 	0.040066
42.75 	0.037254 	4617 	0.037127
42.79 	0.037756 	4582 	0.037501
42.83 	0.042989 	4536 	0.042085
42.87 	0.035786 	4499 	0.035395
42.91 	0.037029 	4456 	0.036371
42.95 	0.035326 	4416 	0.035193
42.99 	0.041961 	4385 	0.041293
43.03 	0.036464 	4333 	0.036329
43.07 	0.041667 	4296 	0.041258
43.11 	0.038778 	4255 	0.038365
43.15 	0.038754 	4206 	0.038058
43.19 	0.040534 	4194 	0.040115
43.23 	0.036351 	4154 	0.036068
43.27 	0.040682 	4105 	0.040254
43.31 	0.039961 	4079 	0.039243
43.35 	0.037202 	4032 	0.036767
43.39 	0.035732 	4002 	0.035732
43.43 	0.037879 	3960 	0.037435
43.47 	0.045652 	3921 	0.044755
43.51 	0.035852 	3877 	0.035223
43.55 	0.042848 	2964 	0.042452
43.59 	0.040092 	1746 	0.040092
43.63 	0.036963 	1001 	0.036378
43.67 	0.043825 	502 	0.043825
43.71 	0.037657 	239 	0.037657
43.75 	0.000000 	16 	0.000000