File: Example_Data/25SC_s1_0044.002.dat
#F C:\frames\spec\25SC_s1_0044.002
#C title =s:44 frm:2 25SC_s1
#C wavelength =0.15406

#S 1  fr_average C:\frames\spec\25SC_s1_0044.002 C:\win32app\speccom\mask.axs chi 0 180 0 360 0.02
#C 2 theta =0.000000 to 180 deg
#C   q   =0.000000 to 81.568 nm^-1
#C  chi  =0.000000 to 360 deg
#C collumns:
#C  1 position (2theta or chi in degrees)
#C  2 average intensity (sum of all counts in the region divided with number of pixels)
#C  3 Number of pixels in region)
#C  4 error (sum of sqrt(intensity) for all pixels divided by number)
#N 4
#L TTh  Int  N_pix  Err
32.99 	0.016393 	61 	0.016393
33.03 	0.047448 	1391 	0.046606
33.07 	0.060976 	2050 	0.060976
33.11 	0.060876 	2579 	0.059741
33.15 	0.058019 	2999 	0.057238
33.19 	0.057451 	3342 	0.056574
33.23 	0.057054 	3523 	0.056389
33.27 	0.059780 	3630 	0.058462
33.31 	0.058197 	3660 	0.056916
33.35 	0.059015 	3694 	0.058697
33.39 	0.057388 	3729 	0.056446
33.43 	0.051050 	3761 	0.050271
33.47 	0.051869 	3798 	0.051227
33.51 	0.055832 	3815 	0.055218
33.55 	0.058808 	3843 	0.057589
33.59 	0.057474 	3880 	0.056266
33.63 	0.068130 	3919 	0.067233
33.67 	0.057663 	3954 	0.056626
33.71 	0.058113 	3975 	0.057818
33.75 	0.055514 	3999 	0.053756
33.79 	0.056669 	4041 	0.055944
33.83 	0.060000 	4050 	0.058819
33.87 	0.056920 	4111 	0.056042
33.91 	0.056640 	4149 	0.055346
33.95 	0.055967 	4181 	0.054987
33.99 	0.058810 	4200 	0.057275
34.03 	0.052074 	4244 	0.051245
34.07 	0.056701 	4268 	0.055740
34.11 	0.056950 	4302 	0.056133
34.15 	0.060725 	4331 	0.059643
34.19 	0.059835 	4362 	0.058201
34.23 	0.056226 	4393 	0.055426
34.27 	0.060154 	4422 	0.059094
34.31 	0.054957 	4458 	0.054695
34.35 	0.052409 	4484 	0.051755
34.39 	0.053976 	4502 	0.052805
34.43 	0.064992 	4539 	0.063680
34.47 	0.057274 	4592 	0.055615
34.51 	0.051889 	4606 	0.050617
34.55 	0.059660 	4643 	0.058377
34.59 	0.056471 	4675 	0.054967
34.63 	0.060722 	4710 	0.060204
34.67 	0.053997 	4741 	0.053132
34.71 	0.054763 	4766 	0.054394
34.75 	0.059900 	4808 	0.058804
34.79 	0.057007 	4824 	0.055914
34.83 	0.060469 	4862 	0.059264
34.87 	0.054232 	4868 	0.053750
34.91 	0.053257 	4882 	0.052777
34.95 	0.058078 	4890 	0.057000
34.99 	0.056974 	4897 	0.055897
35.03 	0.059680 	4943 	0.058732
35.07 	0.053239 	4940 	0.051697
35.11 	0.059834 	4947 	0.059361
35.15 	0.055702 	4937 	0.054229
35.19 	0.055241 	4942 	0.054885
35.23 	0.050758 	4945 	0.049929
35.27 	0.058003 	4948 	0.057175
35.31 	0.053112 	4933 	0.052162
35.35 	0.053622 	4942 	0.052318
35.39 	0.057836 	4945 	0.056533
35.43 	0.056761 	4933 	0.055692
35.47 	0.053539 	4931 	0.052707
35.51 	0.054405 	4926 	0.053335
35.55 	0.060263 	4945 	0.058486
35.59 	0.051769 	4945 	0.050940
35.63 	0.056241 	4943 	0.055530
35.67 	0.058883 	4942 	0.058172
35.71 	0.059955 	4937 	0.058532
35.75 	0.057189 	4931 	0.056358
35.79 	0.054947 	4932 	0.053265
35.83 	0.051355 	4946 	0.050032
35.87 	0.051391 	4923 	0.050796
35.91 	0.055815 	4927 	0.054606
35.95 	0.058572 	4917 	0.057381
35.99 	0.057906 	4939 	0.057313
36.03 	0.058871 	4943 	0.058042
36.07 	0.051225 	4939 	0.050632
36.11 	0.053155 	4929 	0.052085
36.15 	0.056692 	4939 	0.056079
36.19 	0.051619 	4940 	0.050789
36.23 	0.058561 	4935 	0.057968
36.27 	0.056853 	4925 	0.056020
36.31 	0.058847 	4928 	0.057540
36.35 	0.051938 	4929 	0.051224
36.39 	0.054460 	4921 	0.053012
36.43 	0.049513 	4928 	0.048681
36.47 	0.057739 	4936 	0.057027
36.51 	0.059193 	4933 	0.058124
36.55 	0.056830 	4927 	0.056116
36.59 	0.059324 	4939 	0.058256
36.63 	0.054553 	4931 	0.053672
36.67 	0.050304 	4930 	0.049948
36.71 	0.050193 	4921 	0.049479
36.75 	0.053196 	4944 	0.053077
36.79 	0.055477 	4921 	0.054524
36.83 	0.053306 	4915 	0.053068
36.87 	0.055218 	4944 	0.054389
36.91 	0.052823 	4941 	0.051756
36.95 	0.056761 	4933 	0.055929
36.99 	0.057953 	4935 	0.057241
37.03 	0.055443 	4924 	0.054848
37.07 	0.060182 	4935 	0.059708
37.11 	0.051469 	4935 	0.051350
37.15 	0.052149 	4909 	0.051791
37.19 	0.054010 	4925 	0.053653
37.23 	0.055714 	4918 	0.055218
37.27 	0.055170 	4894 	0.054571
37.31 	0.053901 	4935 	0.052951
37.35 	0.049615 	4938 	0.048903
37.39 	0.054147 	4931 	0.053415
37.43 	0.053731 	4932 	0.053018
37.47 	0.055995 	4929 	0.055757
37.51 	0.052706 	4933 	0.052231
37.55 	0.051318 	4930 	0.050249
37.59 	0.052899 	4915 	0.051946
37.63 	0.058345 	4919 	0.057492
37.67 	0.056688 	4904 	0.055833
37.71 	0.051735 	4929 	0.051022
37.75 	0.054049 	4940 	0.053337
37.79 	0.047262 	4930 	0.046549
37.83 	0.044919 	4920 	0.044085
37.87 	0.054060 	4939 	0.052873
37.91 	0.048884 	4930 	0.047815
37.95 	0.051209 	4921 	0.050376
37.99 	0.053746 	4912 	0.053269
38.03 	0.049501 	4909 	0.048785
38.07 	0.056834 	4909 	0.055472
38.11 	0.049037 	4935 	0.048681
38.15 	0.054494 	4918 	0.053898
38.19 	0.051116 	4930 	0.050403
38.23 	0.056096 	4938 	0.055384
38.27 	0.058621 	4930 	0.057908
38.31 	0.051756 	4927 	0.051042
38.35 	0.060268 	4928 	0.059674
38.39 	0.058464 	4909 	0.057390
38.43 	0.063059 	4916 	0.061629
38.47 	0.059303 	4907 	0.057970
38.51 	0.066504 	4932 	0.065317
38.55 	0.064425 	4936 	0.063713
38.59 	0.061942 	4924 	0.060514
38.63 	0.059708 	4924 	0.058756
38.67 	0.057525 	4937 	0.056813
38.71 	0.052396 	4924 	0.051564
38.75 	0.054191 	4927 	0.053002
38.79 	0.046818 	4934 	0.045868
38.83 	0.051637 	4919 	0.051041
38.87 	0.047241 	4911 	0.046525
38.91 	0.050989 	4903 	0.050272
38.95 	0.039650 	4918 	0.039293
38.99 	0.045979 	4937 	0.045149
39.03 	0.043575 	4934 	0.042111
39.07 	0.050162 	4924 	0.049568
39.11 	0.047860 	4931 	0.046910
39.15 	0.048220 	4915 	0.047028
39.19 	0.044336 	4917 	0.043502
39.23 	0.049340 	4925 	0.048508
39.27 	0.044603 	4910 	0.044006
39.31 	0.048935 	4884 	0.048456
39.35 	0.044985 	4935 	0.044747
39.39 	0.039359 	4929 	0.039121
39.43 	0.041962 	4933 	0.041369
39.47 	0.039407 	4923 	0.038931
39.51 	0.043461 	4924 	0.042985
39.55 	0.044318 	4919 	0.043723
39.59 	0.042956 	4912 	0.042598
39.63 	0.043885 	4922 	0.043409
39.67 	0.043965 	4913 	0.043488
39.71 	0.037794 	4895 	0.036956
39.75 	0.048295 	4928 	0.047939
39.79 	0.049736 	4926 	0.048904
39.83 	0.045805 	4934 	0.045448
39.87 	0.042437 	4925 	0.041842
39.91 	0.040431 	4922 	0.039717
39.95 	0.046185 	4915 	0.045351
39.99 	0.045012 	4932 	0.044656
40.03 	0.039164 	4928 	0.038688
40.07 	0.042251 	4923 	0.041418
40.11 	0.043328 	4916 	0.042713
40.15 	0.041115 	4913 	0.040519
40.19 	0.040779 	4929 	0.040541
40.23 	0.043998 	4932 	0.043761
40.27 	0.045574 	4937 	0.045100
40.31 	0.043734 	4939 	0.043022
40.35 	0.041269 	4919 	0.040911
40.39 	0.044818 	4931 	0.044106
40.43 	0.041040 	4922 	0.040683
40.47 	0.039447 	4918 	0.039090
40.51 	0.040024 	4922 	0.039429
40.55 	0.037082 	4908 	0.036605
40.59 	0.042941 	4937 	0.042822
40.63 	0.041379 	4930 	0.040904
40.67 	0.042579 	4932 	0.042342
40.71 	0.038727 	4932 	0.038370
40.75 	0.041574 	4931 	0.041099
40.79 	0.041227 	4924 	0.040751
40.83 	0.037744 	4928 	0.036793
40.87 	0.041193 	4928 	0.040480
40.91 	0.046110 	4923 	0.045872
40.95 	0.042337 	4913 	0.041740
40.99 	0.043664 	4924 	0.043426
41.03 	0.040571 	4905 	0.040451
41.07 	0.050304 	4930 	0.049591
41.11 	0.045187 	4935 	0.044456
41.15 	0.042502 	4941 	0.042027
41.19 	0.036308 	4930 	0.035833
41.23 	0.045758 	4939 	0.045402
41.27 	0.039140 	4931 	0.038665
41.31 	0.041962 	4933 	0.041725
41.35 	0.039692 	4938 	0.038961
41.39 	0.038111 	4933 	0.037873
41.43 	0.044025 	4929 	0.043431
41.47 	0.038368 	4926 	0.038130
41.51 	0.039676 	4940 	0.038965
41.55 	0.039716 	4935 	0.039242
41.59 	0.043989 	4933 	0.042901
41.63 	0.039490 	4938 	0.038758
41.67 	0.039271 	4940 	0.038916
41.71 	0.040738 	4934 	0.040500
41.75 	0.040779 	4929 	0.040423
41.79 	0.035801 	4944 	0.035327
41.83 	0.036323 	4928 	0.035966
41.87 	0.038095 	4935 	0.037620
41.91 	0.038088 	4936 	0.037850
41.95 	0.041168 	4931 	0.040693
41.99 	0.041386 	4905 	0.041147
42.03 	0.038469 	4939 	0.037876
42.07 	0.037067 	4937 	0.036711
42.11 	0.039232 	4945 	0.038876
42.15 	0.036655 	4938 	0.036299
42.19 	0.037694 	4908 	0.037455
42.23 	0.040270 	4892 	0.039671
42.27 	0.035700 	4874 	0.035459
42.31 	0.031720 	4855 	0.031599
42.35 	0.033485 	4838 	0.033001
42.39 	0.040799 	4804 	0.040312
42.43 	0.039023 	4792 	0.038412
42.47 	0.038195 	4765 	0.037826
42.51 	0.035631 	4743 	0.035261
42.55 	0.035259 	4708 	0.035010
42.59 	0.038697 	4729 	0.038450
42.63 	0.035464 	4709 	0.035340
42.67 	0.040564 	4684 	0.040188
42.71 	0.039674 	4663 	0.039423
42.75 	0.038337 	4617 	0.038083
42.79 	0.039721 	4582 	0.039337
42.83 	0.042769 	4536 	0.042123
42.87 	0.035341 	4499 	0.035211
42.91 	0.038151 	4456 	0.037888
42.95 	0.033288 	4416 	0.033288
42.99 	0.040365 	4385 	0.040098
43.03 	0.033695 	4333 	0.033560
43.07 	0.035149 	4296 	0.034876
43.11 	0.037603 	4255 	0.036777
43.15 	0.038516 	4206 	0.037959
43.19 	0.040773 	4194 	0.040074
43.23 	0.038758 	4154 	0.038476
43.27 	0.038977 	4105 	0.038121
43.31 	0.038000 	4079 	0.037712
43.35 	0.040427 	4032 	0.039991
43.39 	0.037231 	4002 	0.037085
43.43 	0.040152 	3960 	0.039856
43.47 	0.035705 	3921 	0.035556
43.51 	0.034821 	3877 	0.034670
43.55 	0.040148 	2964 	0.039753
43.59 	0.029782 	1746 	0.029782
43.63 	0.033966 	1001 	0.033966
43.67 	0.051793 	502 	0.051793
43.71 	0.033473 	239 	0.033473
43.75 	0.062500 	16 	0.062500