File: Example_Data/25SC_s1_0045.003.dat
#F C:\frames\spec\25SC_s1_0045.003
#C title =s:45 frm:3 25SC_s1
#C wavelength =0.15406

#S 1  fr_average C:\frames\spec\25SC_s1_0045.003 C:\win32app\speccom\mask.axs chi 0 180 0 360 0.02
#C 2 theta =0.000000 to 180 deg
#C   q   =0.000000 to 81.568 nm^-1
#C  chi  =0.000000 to 360 deg
#C collumns:
#C  1 position (2theta or chi in degrees)
#C  2 average intensity (sum of all counts in the region divided with number of pixels)
#C  3 Number of pixels in region)
#C  4 error (sum of sqrt(intensity) for all pixels divided by number)
#N 4
#L TTh  Int  N_pix  Err
32.99 	0.016393 	61 	0.016393
33.03 	0.063264 	1391 	0.062422
33.07 	0.060488 	2050 	0.058488
33.11 	0.055060 	2579 	0.053697
33.15 	0.065022 	2999 	0.063654
33.19 	0.062537 	3342 	0.061310
33.23 	0.057621 	3523 	0.057289
33.27 	0.047107 	3630 	0.046785
33.31 	0.057104 	3660 	0.055797
33.35 	0.062805 	3694 	0.061536
33.39 	0.071333 	3729 	0.070704
33.43 	0.058495 	3761 	0.058028
33.47 	0.064771 	3798 	0.064000
33.51 	0.063172 	3815 	0.062250
33.55 	0.056206 	3843 	0.055444
33.59 	0.054124 	3880 	0.052765
33.63 	0.057413 	3919 	0.056516
33.67 	0.058675 	3954 	0.057490
33.71 	0.060629 	3975 	0.060039
33.75 	0.057764 	3999 	0.056886
33.79 	0.060134 	4041 	0.059264
33.83 	0.061728 	4050 	0.060571
33.87 	0.054974 	4111 	0.053977
33.91 	0.064112 	4149 	0.062982
33.95 	0.060512 	4181 	0.059531
33.99 	0.065714 	4200 	0.064297
34.03 	0.062912 	4244 	0.061670
34.07 	0.058575 	4268 	0.057340
34.11 	0.061832 	4302 	0.061015
34.15 	0.066036 	4331 	0.063984
34.19 	0.063503 	4362 	0.061354
34.23 	0.059413 	4393 	0.058479
34.27 	0.056083 	4422 	0.054891
34.31 	0.056079 	4458 	0.055553
34.35 	0.058430 	4484 	0.056993
34.39 	0.060418 	4502 	0.059116
34.43 	0.057061 	4539 	0.056932
34.47 	0.051611 	4592 	0.051229
34.51 	0.056448 	4606 	0.056067
34.55 	0.061598 	4643 	0.060967
34.59 	0.058396 	4675 	0.057769
34.63 	0.057113 	4710 	0.056242
34.67 	0.053786 	4741 	0.053292
34.71 	0.057491 	4766 	0.056733
34.75 	0.060108 	4808 	0.059255
34.79 	0.057629 	4824 	0.056657
34.83 	0.054299 	4862 	0.053576
34.87 	0.055053 	4868 	0.054331
34.91 	0.055100 	4882 	0.054121
34.95 	0.060532 	4890 	0.058974
34.99 	0.055136 	4897 	0.054418
35.03 	0.060287 	4943 	0.059576
35.07 	0.059514 	4940 	0.058803
35.11 	0.050131 	4947 	0.049303
35.15 	0.054284 	4937 	0.053335
35.19 	0.054836 	4942 	0.054243
35.23 	0.057634 	4945 	0.056449
35.27 	0.058812 	4948 	0.058338
35.31 	0.053720 	4933 	0.052889
35.35 	0.052003 	4942 	0.051035
35.39 	0.060465 	4945 	0.059498
35.43 	0.058382 	4933 	0.056839
35.47 	0.061448 	4931 	0.060498
35.51 	0.059683 	4926 	0.058851
35.55 	0.059050 	4945 	0.057746
35.59 	0.060465 	4945 	0.058925
35.63 	0.051993 	4943 	0.051163
35.67 	0.057669 	4942 	0.056464
35.71 	0.060766 	4937 	0.060172
35.75 	0.059623 	4931 	0.058554
35.79 	0.060219 	4932 	0.059150
35.83 	0.057016 	4946 	0.055950
35.87 	0.050985 	4923 	0.050033
35.91 	0.058250 	4927 	0.057894
35.95 	0.054912 	4917 	0.053939
35.99 	0.056489 	4939 	0.055778
36.03 	0.051386 	4943 	0.050418
36.07 	0.057704 	4939 	0.056992
36.11 	0.056807 	4929 	0.055737
36.15 	0.056287 	4939 	0.055812
36.19 	0.052024 	4940 	0.050957
36.23 	0.060182 	4935 	0.059470
36.27 	0.059086 	4925 	0.057302
36.31 	0.053369 	4928 	0.052774
36.35 	0.050923 	4929 	0.050448
36.39 	0.053241 	4921 	0.052289
36.43 	0.057224 	4928 	0.056273
36.47 	0.049838 	4936 	0.048632
36.51 	0.058382 	4933 	0.057907
36.55 	0.051756 	4927 	0.051161
36.59 	0.059526 	4939 	0.057866
36.63 	0.052119 	4931 	0.051763
36.67 	0.051927 	4930 	0.051333
36.71 	0.050803 	4921 	0.050327
36.75 	0.051780 	4944 	0.051424
36.79 	0.055273 	4921 	0.054202
36.83 	0.060020 	4915 	0.058709
36.87 	0.055421 	4944 	0.054710
36.91 	0.051407 	4941 	0.050695
36.95 	0.062031 	4933 	0.060369
36.99 	0.065856 	4935 	0.064788
37.03 	0.061942 	4924 	0.060237
37.07 	0.054914 	4935 	0.054439
37.11 	0.050253 	4935 	0.050016
37.15 	0.053168 	4909 	0.052452
37.19 	0.056041 	4925 	0.055327
37.23 	0.056934 	4918 	0.056100
37.27 	0.053535 	4894 	0.052936
37.31 	0.052685 	4935 	0.052329
37.35 	0.050425 	4938 	0.049595
37.39 	0.046846 	4931 	0.046134
37.43 	0.049676 	4932 	0.048607
37.47 	0.051126 	4929 	0.050888
37.51 	0.055747 	4933 	0.054678
37.55 	0.052535 	4930 	0.051803
37.59 	0.052289 	4915 	0.051335
37.63 	0.050620 	4919 	0.049906
37.67 	0.053426 	4904 	0.052092
37.71 	0.057618 	4929 	0.056549
37.75 	0.053441 	4940 	0.052710
37.79 	0.050710 	4930 	0.049878
37.83 	0.058943 	4920 	0.057752
37.87 	0.051022 	4939 	0.050904
37.91 	0.055172 	4930 	0.054341
37.95 	0.053851 	4921 	0.053256
37.99 	0.052321 	4912 	0.051347
38.03 	0.052149 	4909 	0.051552
38.07 	0.057853 	4909 	0.057018
38.11 	0.048835 	4935 	0.048123
38.15 	0.055510 	4918 	0.054319
38.19 	0.053753 	4930 	0.053277
38.23 	0.054881 	4938 	0.054050
38.27 	0.056592 	4930 	0.055642
38.31 	0.065963 	4927 	0.064417
38.35 	0.062500 	4928 	0.061311
38.39 	0.051945 	4909 	0.051587
38.43 	0.057567 	4916 	0.056018
38.47 	0.060933 	4907 	0.060336
38.51 	0.063869 	4932 	0.062562
38.55 	0.066248 	4936 	0.065061
38.59 	0.064175 	4924 	0.062986
38.63 	0.060317 	4924 	0.059722
38.67 	0.063196 	4937 	0.061654
38.71 	0.053818 	4924 	0.052747
38.75 	0.055409 	4927 	0.053744
38.79 	0.049453 	4934 	0.048721
38.83 	0.048587 	4919 	0.047515
38.87 	0.050703 	4911 	0.049987
38.91 	0.046910 	4903 	0.046193
38.95 	0.049410 	4918 	0.048219
38.99 	0.046790 	4937 	0.046315
39.03 	0.051682 	4934 	0.051207
39.07 	0.047725 	4924 	0.047131
39.11 	0.051105 	4931 	0.050392
39.15 	0.046999 	4915 	0.046880
39.19 	0.046166 	4917 	0.045571
39.23 	0.044467 	4925 	0.043515
39.27 	0.047454 	4910 	0.046500
39.31 	0.048935 	4884 	0.047616
39.35 	0.045593 	4935 	0.044999
39.39 	0.047677 	4929 	0.046726
39.43 	0.045611 	4933 	0.044780
39.47 	0.042860 	4923 	0.042503
39.51 	0.046101 	4924 	0.045744
39.55 	0.043911 	4919 	0.042721
39.59 	0.043974 	4912 	0.043735
39.63 	0.044900 	4922 	0.043810
39.67 	0.044779 	4913 	0.044183
39.71 	0.055975 	4895 	0.055377
39.75 	0.049716 	4928 	0.048646
39.79 	0.050345 	4926 	0.049751
39.83 	0.045399 	4934 	0.044687
39.87 	0.046904 	4925 	0.046547
39.91 	0.052011 	4922 	0.050702
39.95 	0.046185 	4915 	0.045112
39.99 	0.052920 	4932 	0.051970
40.03 	0.050325 	4928 	0.049730
40.07 	0.044891 	4923 	0.044296
40.11 	0.045159 	4916 	0.044682
40.15 	0.046000 	4913 	0.045285
40.19 	0.039968 	4929 	0.039373
40.23 	0.044809 	4932 	0.044453
40.27 	0.049423 	4937 	0.048454
40.31 	0.044543 	4939 	0.044188
40.35 	0.045334 	4919 	0.044858
40.39 	0.042791 	4931 	0.042434
40.43 	0.047135 	4922 	0.046302
40.47 	0.041887 	4918 	0.041530
40.51 	0.048761 	4922 	0.048047
40.55 	0.043195 	4908 	0.042817
40.59 	0.040308 	4937 	0.039952
40.63 	0.045436 	4930 	0.044842
40.67 	0.039943 	4932 	0.039468
40.71 	0.050892 	4932 	0.050417
40.75 	0.042791 	4931 	0.042197
40.79 	0.047929 	4924 	0.047096
40.83 	0.049513 	4928 	0.048919
40.87 	0.045860 	4928 	0.044791
40.91 	0.044688 	4923 	0.043736
40.95 	0.041930 	4913 	0.041214
40.99 	0.042242 	4924 	0.041528
41.03 	0.042202 	4905 	0.041605
41.07 	0.040162 	4930 	0.039806
41.11 	0.046809 	4935 	0.046334
41.15 	0.047561 	4941 	0.046731
41.19 	0.048073 	4930 	0.047479
41.23 	0.050820 	4939 	0.050346
41.27 	0.046644 	4931 	0.045931
41.31 	0.038922 	4933 	0.038803
41.35 	0.043945 	4938 	0.043233
41.39 	0.042165 	4933 	0.041928
41.43 	0.045242 	4929 	0.044767
41.47 	0.047097 	4926 	0.045908
41.51 	0.044939 	4940 	0.044228
41.55 	0.043972 	4935 	0.043359
41.59 	0.040949 	4933 	0.040355
41.63 	0.040907 	4938 	0.040907
41.67 	0.039474 	4940 	0.038881
41.71 	0.041954 	4934 	0.041459
41.75 	0.045242 	4929 	0.044886
41.79 	0.038633 	4944 	0.038514
41.83 	0.045657 	4928 	0.045182
41.87 	0.038703 	4935 	0.037991
41.91 	0.047002 	4936 	0.046408
41.95 	0.037721 	4931 	0.037602
41.99 	0.041182 	4905 	0.040705
42.03 	0.040696 	4939 	0.039866
42.07 	0.043751 	4937 	0.043395
42.11 	0.038827 	4945 	0.038116
42.15 	0.037465 	4938 	0.036871
42.19 	0.045232 	4908 	0.044516
42.23 	0.038021 	4892 	0.037542
42.27 	0.038572 	4874 	0.038091
42.31 	0.038929 	4855 	0.038688
42.35 	0.042580 	4838 	0.041853
42.39 	0.044130 	4804 	0.043642
42.43 	0.039649 	4792 	0.039527
42.47 	0.035887 	4765 	0.035272
42.51 	0.041746 	4743 	0.041252
42.55 	0.039720 	4708 	0.039346
42.59 	0.040389 	4729 	0.040265
42.63 	0.040985 	4709 	0.040737
42.67 	0.045047 	4684 	0.044547
42.71 	0.041604 	4663 	0.041081
42.75 	0.045267 	4617 	0.044887
42.79 	0.036229 	4582 	0.035824
42.83 	0.037698 	4536 	0.036794
42.87 	0.040898 	4499 	0.040377
42.91 	0.040619 	4456 	0.040356
42.95 	0.043252 	4416 	0.042721
42.99 	0.044698 	4385 	0.044297
43.03 	0.042234 	4333 	0.041423
43.07 	0.036546 	4296 	0.036273
43.11 	0.042538 	4255 	0.042401
43.15 	0.039705 	4206 	0.039566
43.19 	0.044588 	4194 	0.043889
43.23 	0.038517 	4154 	0.038094
43.27 	0.046772 	4105 	0.045773
43.31 	0.043638 	4079 	0.042776
43.35 	0.037946 	4032 	0.037365
43.39 	0.040980 	4002 	0.040394
43.43 	0.040909 	3960 	0.040613
43.47 	0.046162 	3921 	0.045863
43.51 	0.040495 	3877 	0.040042
43.55 	0.046221 	2964 	0.046024
43.59 	0.040664 	1746 	0.040329
43.63 	0.046953 	1001 	0.046953
43.67 	0.037849 	502 	0.037849
43.71 	0.020921 	239 	0.020921
43.75 	0.000000 	16 	0.000000