File: Example_Data/25SC_s1_0002.004.dat
#F C:\frames\spec\25SC_s1_0002.004
#C title =s:2 frm:4 25SC_s1
#C wavelength =0.15406

#S 1  fr_average C:\frames\spec\25SC_s1_0002.004 C:\win32app\speccom\mask.axs chi 0 180 0 360 0.02
#C 2 theta =0.000000 to 180 deg
#C   q   =0.000000 to 81.568 nm^-1
#C  chi  =0.000000 to 360 deg
#C collumns:
#C  1 position (2theta or chi in degrees)
#C  2 average intensity (sum of all counts in the region divided with number of pixels)
#C  3 Number of pixels in region)
#C  4 error (sum of sqrt(intensity) for all pixels divided by number)
#N 4
#L TTh  Int  N_pix  Err
32.99 	0.098361 	61 	0.098361
33.03 	0.080518 	1391 	0.079254
33.07 	0.077073 	2050 	0.074501
33.11 	0.068631 	2579 	0.067950
33.15 	0.079693 	2999 	0.078521
33.19 	0.065829 	3342 	0.064952
33.23 	0.069827 	3523 	0.068330
33.27 	0.064738 	3630 	0.062963
33.31 	0.071311 	3660 	0.069711
33.35 	0.074986 	3694 	0.073401
33.39 	0.070260 	3729 	0.069003
33.43 	0.070726 	3761 	0.069947
33.47 	0.072143 	3798 	0.069675
33.51 	0.074181 	3815 	0.072159
33.55 	0.068696 	3843 	0.066867
33.59 	0.070619 	3880 	0.069713
33.63 	0.072212 	3919 	0.071166
33.67 	0.074608 	3954 	0.073571
33.71 	0.071950 	3975 	0.070894
33.75 	0.067267 	3999 	0.065948
33.79 	0.066815 	4041 	0.065052
33.83 	0.071358 	4050 	0.070490
33.87 	0.070299 	4111 	0.068993
33.91 	0.074717 	4149 	0.073164
33.95 	0.067448 	4181 	0.066047
33.99 	0.066667 	4200 	0.065690
34.03 	0.060556 	4244 	0.059153
34.07 	0.068650 	4268 	0.067278
34.11 	0.079265 	4302 	0.078040
34.15 	0.069268 	4331 	0.067217
34.19 	0.062586 	4362 	0.061512
34.23 	0.070112 	4393 	0.068223
34.27 	0.068973 	4422 	0.067649
34.31 	0.074921 	4458 	0.073060
34.35 	0.075825 	4484 	0.074105
34.39 	0.070857 	4502 	0.069036
34.43 	0.067195 	4539 	0.066163
34.47 	0.071646 	4592 	0.069988
34.51 	0.065784 	4606 	0.063876
34.55 	0.075598 	4643 	0.072907
34.59 	0.069733 	4675 	0.068104
34.63 	0.062420 	4710 	0.060037
34.67 	0.064121 	4741 	0.063113
34.71 	0.070709 	4766 	0.069357
34.75 	0.067180 	4808 	0.066205
34.79 	0.065713 	4824 	0.064256
34.83 	0.058618 	4862 	0.057172
34.87 	0.070255 	4868 	0.068811
34.91 	0.070053 	4882 	0.068853
34.95 	0.078732 	4890 	0.076935
34.99 	0.069226 	4897 	0.068149
35.03 	0.066356 	4943 	0.065053
35.07 	0.072672 	4940 	0.071585
35.11 	0.074186 	4947 	0.072292
35.15 	0.071501 	4937 	0.070077
35.19 	0.077499 	4942 	0.075365
35.23 	0.072801 	4945 	0.071261
35.27 	0.067300 	4948 	0.066116
35.31 	0.067910 	4933 	0.066723
35.35 	0.070417 	4942 	0.069232
35.39 	0.067543 	4945 	0.066477
35.43 	0.072572 	4933 	0.071365
35.47 	0.068343 	4931 	0.067749
35.51 	0.066788 	4926 	0.065837
35.55 	0.067341 	4945 	0.066393
35.59 	0.067947 	4945 	0.066269
35.63 	0.072426 	4943 	0.070530
35.67 	0.066370 	4942 	0.065422
35.71 	0.068260 	4937 	0.066461
35.75 	0.074630 	4931 	0.073561
35.79 	0.068127 	4932 	0.067414
35.83 	0.068945 	4946 	0.067523
35.87 	0.067439 	4923 	0.065654
35.91 	0.066775 	4927 	0.065229
35.95 	0.068538 	4917 	0.066751
35.99 	0.069447 	4939 	0.068024
36.03 	0.065750 	4943 	0.063853
36.07 	0.065398 	4939 	0.063737
36.11 	0.071414 	4929 	0.069988
36.15 	0.069852 	4939 	0.068548
36.19 	0.064777 	4940 	0.063453
36.23 	0.068896 	4935 	0.067570
36.27 	0.072081 	4925 	0.070991
36.31 	0.073255 	4928 	0.071947
36.35 	0.074052 	4929 	0.072130
36.39 	0.066043 	4921 	0.065329
36.43 	0.075690 	4928 	0.074006
36.47 	0.073136 	4936 	0.071949
36.51 	0.063045 	4933 	0.061976
36.55 	0.075299 	4927 	0.074110
36.59 	0.073092 	4939 	0.071906
36.63 	0.068546 	4931 	0.066645
36.67 	0.070994 	4930 	0.069687
36.71 	0.063605 	4921 	0.062891
36.75 	0.070388 	4944 	0.068967
36.79 	0.072546 	4921 	0.071356
36.83 	0.073042 	4915 	0.071592
36.87 	0.064118 	4944 	0.062459
36.91 	0.066383 	4941 	0.065198
36.95 	0.071559 	4933 	0.070253
36.99 	0.062209 	4935 	0.060666
37.03 	0.069253 	4924 	0.067944
37.07 	0.068288 	4935 	0.067200
37.11 	0.064235 	4935 	0.062554
37.15 	0.073131 	4909 	0.071918
37.19 	0.065381 	4925 	0.064191
37.23 	0.074624 	4918 	0.072123
37.27 	0.068043 	4894 	0.066586
37.31 	0.063019 	4935 	0.062426
37.35 	0.069461 	4938 	0.067919
37.39 	0.069763 	4931 	0.068912
37.43 	0.065085 	4932 	0.063897
37.47 	0.070805 	4929 	0.069023
37.51 	0.065275 	4933 	0.063593
37.55 	0.063083 	4930 	0.061895
37.59 	0.059003 	4915 	0.058169
37.63 	0.062411 	4919 	0.061458
37.67 	0.060155 	4904 	0.059080
37.71 	0.067762 	4929 	0.066574
37.75 	0.064980 	4940 	0.063794
37.79 	0.067343 	4930 	0.065442
37.83 	0.058740 	4920 	0.057649
37.87 	0.068637 	4939 	0.067451
37.91 	0.064706 	4930 	0.062805
37.95 	0.061979 	4921 	0.061384
37.99 	0.066572 	4912 	0.065618
38.03 	0.066001 	4909 	0.064430
38.07 	0.061112 	4909 	0.059800
38.11 	0.065451 	4935 	0.064007
38.15 	0.069134 	4918 	0.067923
38.19 	0.065517 	4930 	0.064567
38.23 	0.069461 	4938 	0.067900
38.27 	0.074645 	4930 	0.072982
38.31 	0.070834 	4927 	0.069645
38.35 	0.076096 	4928 	0.074669
38.39 	0.074761 	4909 	0.073090
38.43 	0.076688 	4916 	0.075309
38.47 	0.069696 	4907 	0.067886
38.51 	0.079481 	4932 	0.077561
38.55 	0.083266 	4936 	0.081011
38.59 	0.080626 	4924 	0.079317
38.63 	0.075955 	4924 	0.074150
38.67 	0.078590 	4937 	0.076929
38.71 	0.073721 	4924 	0.072531
38.75 	0.068399 	4927 	0.066615
38.79 	0.063235 	4934 	0.062047
38.83 	0.061598 	4919 	0.060407
38.87 	0.063124 	4911 	0.062766
38.91 	0.054252 	4903 	0.053536
38.95 	0.058560 	4918 	0.057727
38.99 	0.054689 	4937 	0.053859
39.03 	0.053101 	4934 	0.052507
39.07 	0.053006 	4924 	0.052173
39.11 	0.059826 	4931 	0.058756
39.15 	0.053510 	4915 	0.052755
39.19 	0.050641 	4917 	0.050283
39.23 	0.055228 	4925 	0.054277
39.27 	0.052546 	4910 	0.051830
39.31 	0.054464 	4884 	0.053744
39.35 	0.049443 	4935 	0.049087
39.39 	0.051532 	4929 	0.051056
39.43 	0.052301 	4933 	0.051351
39.47 	0.053626 	4923 	0.052317
39.51 	0.054021 	4924 	0.053426
39.55 	0.060581 	4919 	0.059510
39.59 	0.054560 	4912 	0.054202
39.63 	0.053434 	4922 	0.052958
39.67 	0.052107 	4913 	0.051014
39.71 	0.053933 	4895 	0.052357
39.75 	0.053977 	4928 	0.052907
39.79 	0.051157 	4926 	0.050444
39.83 	0.053912 	4934 	0.052131
39.87 	0.053604 	4925 	0.052534
39.91 	0.051605 	4922 	0.051129
39.95 	0.054323 	4915 	0.053370
39.99 	0.050689 	4932 	0.050096
40.03 	0.058036 	4928 	0.057204
40.07 	0.051595 	4923 	0.051119
40.11 	0.052075 	4916 	0.051002
40.15 	0.056992 	4913 	0.056257
40.19 	0.054981 	4929 	0.053911
40.23 	0.050892 	4932 	0.050061
40.27 	0.056715 	4937 	0.055884
40.31 	0.050618 	4939 	0.049313
40.35 	0.052450 	4919 	0.051239
40.39 	0.050091 	4931 	0.049378
40.43 	0.051605 	4922 	0.051129
40.47 	0.051240 	4918 	0.050387
40.51 	0.048354 	4922 	0.047521
40.55 	0.053178 	4908 	0.052582
40.59 	0.050233 	4937 	0.049284
40.63 	0.048682 	4930 	0.047969
40.67 	0.047242 	4932 	0.046411
40.71 	0.061030 	4932 	0.059842
40.75 	0.055972 	4931 	0.055141
40.79 	0.048944 	4924 	0.048349
40.83 	0.053977 	4928 	0.053383
40.87 	0.047890 	4928 	0.047533
40.91 	0.053220 	4923 	0.052625
40.95 	0.050478 	4913 	0.049763
40.99 	0.052600 	4924 	0.052243
41.03 	0.050357 	4905 	0.049282
41.07 	0.050507 	4930 	0.049537
41.11 	0.049037 	4935 	0.048187
41.15 	0.051811 	4941 	0.051574
41.19 	0.052130 	4930 	0.051536
41.23 	0.056894 	4939 	0.056182
41.27 	0.054756 	4931 	0.053924
41.31 	0.056152 	4933 	0.055084
41.35 	0.048805 	4938 	0.048093
41.39 	0.051693 	4933 	0.051099
41.43 	0.053155 	4929 	0.052204
41.47 	0.053999 	4926 	0.053048
41.51 	0.051012 	4940 	0.050182
41.55 	0.053495 	4935 	0.052783
41.59 	0.050476 	4933 	0.049269
41.63 	0.052045 	4938 	0.051334
41.67 	0.047571 	4940 	0.047334
41.71 	0.051074 	4934 	0.050481
41.75 	0.049909 	4929 	0.049671
41.79 	0.051173 	4944 	0.049988
41.83 	0.046672 	4928 	0.046553
41.87 	0.050456 	4935 	0.049862
41.91 	0.048622 	4936 	0.047436
41.95 	0.052728 	4931 	0.051995
41.99 	0.053211 	4905 	0.052494
42.03 	0.051832 	4939 	0.051358
42.07 	0.049625 	4937 	0.049032
42.11 	0.047927 	4945 	0.047216
42.15 	0.043742 	4938 	0.042793
42.19 	0.051345 	4908 	0.050629
42.23 	0.047424 	4892 	0.046706
42.27 	0.049856 	4874 	0.049015
42.31 	0.046138 	4855 	0.045655
42.35 	0.044233 	4838 	0.043729
42.39 	0.050375 	4804 	0.049033
42.43 	0.043197 	4792 	0.042586
42.47 	0.050367 	4765 	0.049507
42.51 	0.047438 	4743 	0.047315
42.55 	0.047579 	4708 	0.047205
42.59 	0.046944 	4729 	0.046325
42.63 	0.050542 	4709 	0.049546
42.67 	0.049317 	4684 	0.048441
42.71 	0.046322 	4663 	0.045820
42.75 	0.045701 	4617 	0.045447
42.79 	0.044740 	4582 	0.044101
42.83 	0.049603 	4536 	0.048957
42.87 	0.048455 	4499 	0.048065
42.91 	0.050494 	4456 	0.049573
42.95 	0.046196 	4416 	0.045532
42.99 	0.041277 	4385 	0.040342
43.03 	0.047081 	4333 	0.046540
43.07 	0.043063 	4296 	0.042927
43.11 	0.043478 	4255 	0.042790
43.15 	0.047076 	4206 	0.046379
43.19 	0.046018 	4194 	0.045157
43.23 	0.046702 	4154 	0.046420
43.27 	0.050183 	4105 	0.050040
43.31 	0.046580 	4079 	0.045862
43.35 	0.045387 	4032 	0.044660
43.39 	0.043978 	4002 	0.043246
43.43 	0.043939 	3960 	0.043028
43.47 	0.045142 	3921 	0.044693
43.51 	0.042817 	3877 	0.042363
43.55 	0.046896 	2964 	0.046303
43.59 	0.045246 	1746 	0.044575
43.63 	0.039960 	1001 	0.039960
43.67 	0.037849 	502 	0.036682
43.71 	0.058577 	239 	0.058577
43.75 	0.187500 	16 	0.187500