File: Example_Data/25SC_s1_0017.002.dat
#F C:\frames\spec\25SC_s1_0017.002
#C title =s:17 frm:2 25SC_s1
#C wavelength =0.15406

#S 1  fr_average C:\frames\spec\25SC_s1_0017.002 C:\win32app\speccom\mask.axs chi 0 180 0 360 0.02
#C 2 theta =0.000000 to 180 deg
#C   q   =0.000000 to 81.568 nm^-1
#C  chi  =0.000000 to 360 deg
#C collumns:
#C  1 position (2theta or chi in degrees)
#C  2 average intensity (sum of all counts in the region divided with number of pixels)
#C  3 Number of pixels in region)
#C  4 error (sum of sqrt(intensity) for all pixels divided by number)
#N 4
#L TTh  Int  N_pix  Err
32.99 	0.049180 	61 	0.039577
33.03 	0.057513 	1391 	0.055828
33.07 	0.057073 	2050 	0.056216
33.11 	0.058938 	2579 	0.057348
33.15 	0.058019 	2999 	0.057043
33.19 	0.057451 	3342 	0.056224
33.23 	0.059892 	3523 	0.058562
33.27 	0.058402 	3630 	0.057273
33.31 	0.058197 	3660 	0.057717
33.35 	0.061992 	3694 	0.060565
33.39 	0.053097 	3729 	0.051841
33.43 	0.060622 	3761 	0.058597
33.47 	0.057925 	3798 	0.056537
33.51 	0.061075 	3815 	0.059693
33.55 	0.057507 	3843 	0.056568
33.59 	0.050258 	3880 	0.049503
33.63 	0.054606 	3919 	0.054008
33.67 	0.057916 	3954 	0.057175
33.71 	0.054340 	3975 	0.053898
33.75 	0.057264 	3999 	0.056385
33.79 	0.061866 	4041 	0.061286
33.83 	0.062469 	4050 	0.061457
33.87 	0.055704 	4111 	0.054707
33.91 	0.049892 	4149 	0.049186
33.95 	0.053337 	4181 	0.052356
33.99 	0.060000 	4200 	0.059582
34.03 	0.057493 	4244 	0.056527
34.07 	0.051781 	4268 	0.051232
34.11 	0.059972 	4302 	0.058610
34.15 	0.059571 	4331 	0.057812
34.19 	0.058918 	4362 	0.057284
34.23 	0.056909 	4393 	0.055842
34.27 	0.052691 	4422 	0.051896
34.31 	0.061238 	4458 	0.060187
34.35 	0.053970 	4484 	0.052271
34.39 	0.054642 	4502 	0.053471
34.43 	0.056400 	4539 	0.055497
34.47 	0.063153 	4592 	0.062260
34.51 	0.067738 	4606 	0.066466
34.55 	0.061167 	4643 	0.060032
34.59 	0.052620 	4675 	0.052244
34.63 	0.061571 	4710 	0.060058
34.67 	0.056106 	4741 	0.055489
34.71 	0.053294 	4766 	0.052434
34.75 	0.057612 	4808 	0.056394
34.79 	0.056592 	4824 	0.056106
34.83 	0.063143 	4862 	0.062420
34.87 	0.062449 	4868 	0.061486
34.91 	0.058173 	4882 	0.056833
34.95 	0.056442 	4890 	0.055703
34.99 	0.054319 	4897 	0.053462
35.03 	0.056241 	4943 	0.055293
35.07 	0.059109 	4940 	0.058023
35.11 	0.060239 	4947 	0.058818
35.15 	0.057727 	4937 	0.056778
35.19 	0.060907 	4942 	0.060432
35.23 	0.058443 	4945 	0.057614
35.27 	0.056386 	4948 	0.055321
35.31 	0.054936 	4933 	0.054105
35.35 	0.060704 	4942 	0.060112
35.39 	0.060061 	4945 	0.058876
35.43 	0.063045 	4933 	0.061857
35.47 	0.053539 	4931 	0.052826
35.51 	0.058668 	4926 	0.057598
35.55 	0.053185 	4945 	0.052356
35.59 	0.062285 	4945 	0.060745
35.63 	0.055432 	4943 	0.054839
35.67 	0.059288 	4942 	0.058221
35.71 	0.053271 	4937 	0.052085
35.75 	0.057189 	4931 	0.055625
35.79 	0.058191 	4932 	0.057598
35.83 	0.056005 	4946 	0.055176
35.87 	0.061954 	4923 	0.060407
35.91 	0.058656 	4927 	0.057824
35.95 	0.061013 	4917 	0.060060
35.99 	0.052642 	4939 	0.052405
36.03 	0.060894 	4943 	0.060183
36.07 	0.057906 	4939 	0.056365
36.11 	0.054372 	4929 	0.053065
36.15 	0.058311 	4939 	0.057837
36.19 	0.053036 	4940 	0.052088
36.23 	0.060182 	4935 	0.059589
36.27 	0.055431 	4925 	0.054718
36.31 	0.055195 	4928 	0.054343
36.35 	0.056198 	4929 	0.055841
36.39 	0.061573 	4921 	0.060224
36.43 	0.058036 	4928 	0.057085
36.47 	0.063412 	4936 	0.062700
36.51 	0.056963 	4933 	0.056013
36.55 	0.057236 	4927 	0.056166
36.59 	0.055072 	4939 	0.054104
36.63 	0.060434 	4931 	0.059226
36.67 	0.055375 	4930 	0.054900
36.71 	0.055477 	4921 	0.054762
36.75 	0.056432 	4944 	0.055721
36.79 	0.056289 	4921 	0.055932
36.83 	0.053510 	4915 	0.052437
36.87 	0.052184 	4944 	0.051474
36.91 	0.062740 	4941 	0.061318
36.95 	0.053923 	4933 	0.053448
36.99 	0.055319 	4935 	0.054251
37.03 	0.059301 	4924 	0.058350
37.07 	0.057345 	4935 	0.056020
37.11 	0.056130 	4935 	0.055536
37.15 	0.059483 	4909 	0.058647
37.19 	0.055635 	4925 	0.053850
37.23 	0.059780 	4918 	0.059066
37.27 	0.061708 	4894 	0.060511
37.31 	0.055927 	4935 	0.055571
37.35 	0.054475 	4938 	0.053171
37.39 	0.059014 	4931 	0.057589
37.43 	0.056164 	4932 	0.055214
37.47 	0.058430 	4929 	0.058073
37.51 	0.055747 	4933 	0.054678
37.55 	0.055375 	4930 	0.054662
37.59 	0.056765 	4915 	0.055692
37.63 	0.052450 	4919 	0.051735
37.67 	0.056485 	4904 	0.055648
37.71 	0.048691 	4929 	0.047978
37.75 	0.050000 	4940 	0.049763
37.79 	0.053347 	4930 	0.052872
37.83 	0.049390 	4920 	0.048676
37.87 	0.057097 	4939 	0.055792
37.91 	0.054361 	4930 	0.053410
37.95 	0.056493 	4921 	0.055302
37.99 	0.056596 	4912 	0.055881
38.03 	0.055001 	4909 	0.054046
38.07 	0.048890 	4909 	0.048174
38.11 	0.054103 	4935 	0.053747
38.15 	0.059780 	4918 	0.059185
38.19 	0.054970 	4930 	0.054494
38.23 	0.051235 	4938 	0.049575
38.27 	0.057809 	4930 	0.056502
38.31 	0.058453 	4927 	0.057264
38.35 	0.056209 	4928 	0.055496
38.39 	0.058464 	4909 	0.057748
38.43 	0.058584 	4916 	0.057512
38.47 	0.054412 	4907 	0.053796
38.51 	0.051298 	4932 	0.050941
38.55 	0.065032 	4936 	0.063371
38.59 	0.062551 	4924 	0.061599
38.63 	0.065191 	4924 	0.063644
38.67 	0.061576 	4937 	0.060389
38.71 	0.059301 	4924 	0.057497
38.75 	0.056830 	4927 	0.055126
38.79 	0.058979 	4934 	0.057910
38.83 	0.053466 	4919 	0.052871
38.87 	0.054571 	4911 	0.053498
38.91 	0.054252 	4903 	0.053536
38.95 	0.051647 	4918 	0.050694
38.99 	0.052461 	4937 	0.052342
39.03 	0.051074 	4934 	0.050124
39.07 	0.048132 	4924 	0.047656
39.11 	0.046441 	4931 	0.045491
39.15 	0.047813 	4915 	0.047098
39.19 	0.052878 	4917 	0.052282
39.23 	0.046294 	4925 	0.046175
39.27 	0.046640 	4910 	0.046043
39.31 	0.047297 	4884 	0.046698
39.35 	0.049848 	4935 	0.049255
39.39 	0.048894 	4929 	0.048181
39.43 	0.046827 	4933 	0.046590
39.47 	0.052610 	4923 	0.052134
39.51 	0.046507 	4924 	0.046031
39.55 	0.044115 	4919 	0.043500
39.59 	0.050285 	4912 	0.049450
39.63 	0.043072 	4922 	0.042358
39.67 	0.048850 	4913 	0.048254
39.71 	0.047600 	4895 	0.046283
39.75 	0.048093 	4928 	0.047479
39.79 	0.038165 	4926 	0.037808
39.83 	0.045805 	4934 	0.044736
39.87 	0.043858 	4925 	0.042649
39.91 	0.042869 	4922 	0.042631
39.95 	0.043744 	4915 	0.042790
39.99 	0.045215 	4932 	0.044502
40.03 	0.046266 	4928 	0.045553
40.07 	0.046313 	4923 	0.045599
40.11 	0.047193 	4916 	0.046120
40.15 	0.040912 	4913 	0.040793
40.19 	0.045040 	4929 	0.044564
40.23 	0.049878 	4932 	0.049047
40.27 	0.045169 	4937 	0.044220
40.31 	0.038267 	4939 	0.038030
40.35 	0.041472 	4919 	0.040996
40.39 	0.044818 	4931 	0.044462
40.43 	0.042259 	4922 	0.041783
40.47 	0.036804 	4918 	0.036446
40.51 	0.042666 	4922 	0.042309
40.55 	0.047677 	4908 	0.046961
40.59 	0.042536 	4937 	0.041824
40.63 	0.041785 	4930 	0.041547
40.67 	0.048865 	4932 	0.047914
40.71 	0.042579 	4932 	0.041985
40.75 	0.041371 	4931 	0.041015
40.79 	0.043054 	4924 	0.042698
40.83 	0.043425 	4928 	0.042950
40.87 	0.043831 	4928 	0.043237
40.91 	0.042657 	4923 	0.042300
40.95 	0.040912 	4913 	0.040077
40.99 	0.045288 	4924 	0.044931
41.03 	0.039755 	4905 	0.038919
41.07 	0.044219 	4930 	0.043863
41.11 	0.040932 	4935 	0.040576
41.15 	0.042502 	4941 	0.041672
41.19 	0.041176 	4930 	0.040107
41.23 	0.043531 	4939 	0.042938
41.27 	0.043399 	4931 	0.042924
41.31 	0.039327 	4933 	0.038971
41.35 	0.046780 	4938 	0.046424
41.39 	0.047436 	4933 	0.047317
41.43 	0.048894 	4929 	0.048399
41.47 	0.042631 	4926 	0.041442
41.51 	0.035830 	4940 	0.034980
41.55 	0.044782 	4935 	0.044307
41.59 	0.041151 	4933 	0.040676
41.63 	0.041515 	4938 	0.041278
41.67 	0.040486 	4940 	0.039893
41.71 	0.046007 	4934 	0.045176
41.75 	0.038547 	4929 	0.038191
41.79 	0.048746 	4944 	0.048154
41.83 	0.042208 	4928 	0.041376
41.87 	0.044985 	4935 	0.044273
41.91 	0.039911 	4936 	0.038961
41.95 	0.040154 	4931 	0.039323
41.99 	0.042813 	4905 	0.042216
42.03 	0.035837 	4939 	0.035600
42.07 	0.037270 	4937 	0.037270
42.11 	0.038220 	4945 	0.037865
42.15 	0.045160 	4938 	0.044804
42.19 	0.044010 	4908 	0.043652
42.23 	0.040270 	4892 	0.040150
42.27 	0.035905 	4874 	0.035785
42.31 	0.039135 	4855 	0.039014
42.35 	0.039686 	4838 	0.038596
42.39 	0.040591 	4804 	0.039981
42.43 	0.035267 	4792 	0.035023
42.47 	0.038405 	4765 	0.038405
42.51 	0.040692 	4743 	0.040054
42.55 	0.045242 	4708 	0.044122
42.59 	0.040389 	4729 	0.040017
42.63 	0.042047 	4709 	0.041550
42.67 	0.033732 	4684 	0.033482
42.71 	0.043963 	4663 	0.043586
42.75 	0.042019 	4617 	0.041765
42.79 	0.044522 	4582 	0.044011
42.83 	0.040564 	4536 	0.040306
42.87 	0.042009 	4499 	0.041619
42.91 	0.036355 	4456 	0.036093
42.95 	0.036005 	4416 	0.035342
42.99 	0.037172 	4385 	0.036638
43.03 	0.038080 	4333 	0.037404
43.07 	0.035847 	4296 	0.035575
43.11 	0.043243 	4255 	0.042830
43.15 	0.043985 	4206 	0.043567
43.19 	0.035289 	4194 	0.035149
43.23 	0.038517 	4154 	0.038235
43.27 	0.038490 	4105 	0.037491
43.31 	0.037754 	4079 	0.037180
43.35 	0.038938 	4032 	0.038212
43.39 	0.038731 	4002 	0.038145
43.43 	0.039646 	3960 	0.039055
43.47 	0.039276 	3921 	0.039126
43.51 	0.034305 	3877 	0.033852
43.55 	0.041835 	2964 	0.040650
43.59 	0.032073 	1746 	0.031738
43.63 	0.040959 	1001 	0.040374
43.67 	0.035857 	502 	0.035857
43.71 	0.016736 	239 	0.016736
43.75 	0.062500 	16 	0.062500