File: Example_Data/25SC_s1_0025.001.dat
#F C:\frames\spec\25SC_s1_0025.001
#C title =s:25 frm:1 25SC_s1
#C wavelength =0.15406

#S 1  fr_average C:\frames\spec\25SC_s1_0025.001 C:\win32app\speccom\mask.axs chi 0 180 0 360 0.02
#C 2 theta =0.000000 to 180 deg
#C   q   =0.000000 to 81.568 nm^-1
#C  chi  =0.000000 to 360 deg
#C collumns:
#C  1 position (2theta or chi in degrees)
#C  2 average intensity (sum of all counts in the region divided with number of pixels)
#C  3 Number of pixels in region)
#C  4 error (sum of sqrt(intensity) for all pixels divided by number)
#N 4
#L TTh  Int  N_pix  Err
32.99 	0.065574 	61 	0.065574
33.03 	0.065421 	1391 	0.064578
33.07 	0.051707 	2050 	0.051422
33.11 	0.059713 	2579 	0.059032
33.15 	0.060687 	2999 	0.059287
33.19 	0.058049 	3342 	0.057699
33.23 	0.063014 	3523 	0.062183
33.27 	0.066391 	3630 	0.064777
33.31 	0.057923 	3660 	0.057123
33.35 	0.063346 	3694 	0.061919
33.39 	0.059802 	3729 	0.058545
33.43 	0.060622 	3761 	0.059376
33.47 	0.050816 	3798 	0.050354
33.51 	0.058978 	3815 	0.057596
33.55 	0.055946 	3843 	0.055031
33.59 	0.057990 	3880 	0.057386
33.63 	0.055882 	3919 	0.054985
33.67 	0.060698 	3954 	0.059957
33.71 	0.059119 	3975 	0.057793
33.75 	0.049512 	3999 	0.048780
33.79 	0.066320 	4041 	0.065137
33.83 	0.062716 	4050 	0.061848
33.87 	0.054731 	4111 	0.054019
33.91 	0.059773 	4149 	0.058079
33.95 	0.055967 	4181 	0.055267
33.99 	0.056905 	4200 	0.055789
34.03 	0.052074 	4244 	0.051521
34.07 	0.055295 	4268 	0.054334
34.11 	0.057183 	4302 	0.056366
34.15 	0.060725 	4331 	0.059350
34.19 	0.057084 	4362 	0.056144
34.23 	0.056681 	4393 	0.055881
34.27 	0.059701 	4422 	0.059437
34.31 	0.063033 	4458 	0.061719
34.35 	0.061329 	4484 	0.060415
34.39 	0.056197 	4502 	0.055417
34.43 	0.054417 	4539 	0.053256
34.47 	0.052265 	4592 	0.051499
34.51 	0.057534 	4606 	0.056898
34.55 	0.052121 	4643 	0.051491
34.59 	0.058182 	4675 	0.057179
34.63 	0.061783 	4710 	0.061286
34.67 	0.054630 	4741 	0.054259
34.71 	0.054763 	4766 	0.053903
34.75 	0.055116 	4808 	0.053776
34.79 	0.054519 	4824 	0.053669
34.83 	0.051213 	4862 	0.050973
34.87 	0.054643 	4868 	0.054041
34.91 	0.052642 	4882 	0.052162
34.95 	0.057055 	4890 	0.055737
34.99 	0.057995 	4897 	0.057038
35.03 	0.056443 	4943 	0.055258
35.07 	0.055668 	4940 	0.054364
35.11 	0.053972 	4947 	0.053498
35.15 	0.059348 	4937 	0.058517
35.19 	0.065358 	4942 	0.064153
35.23 	0.059050 	4945 	0.057609
35.27 	0.057195 	4948 	0.056484
35.31 	0.058382 	4933 	0.058026
35.35 	0.058276 	4942 	0.056854
35.39 	0.056825 	4945 	0.056233
35.43 	0.057369 	4933 	0.056043
35.47 	0.055161 	4931 	0.053617
35.51 	0.056841 	4926 	0.056009
35.55 	0.054601 	4945 	0.053515
35.59 	0.051365 	4945 	0.050417
35.63 	0.058467 	4943 	0.057281
35.67 	0.055038 	4942 	0.054090
35.71 	0.062184 	4937 	0.060740
35.75 	0.051308 	4931 	0.049882
35.79 	0.061841 	4932 	0.060871
35.83 	0.058027 	4946 	0.056132
35.87 	0.059720 	4923 	0.058530
35.91 	0.053582 	4927 	0.052988
35.95 	0.056335 	4917 	0.054429
35.99 	0.053857 	4939 	0.052908
36.03 	0.058669 	4943 	0.057839
36.07 	0.060134 	4939 	0.059303
36.11 	0.053966 	4929 	0.052382
36.15 	0.062361 	4939 	0.060938
36.19 	0.057287 	4940 	0.056102
36.23 	0.051469 	4935 	0.050994
36.27 	0.060914 	4925 	0.059724
36.31 	0.067776 	4928 	0.067063
36.35 	0.056807 	4929 	0.056212
36.39 	0.056696 	4921 	0.055386
36.43 	0.055804 	4928 	0.054734
36.47 	0.049838 	4936 	0.049245
36.51 	0.059193 	4933 	0.057887
36.55 	0.052162 	4927 	0.052162
36.59 	0.061551 	4939 	0.060958
36.63 	0.058000 	4931 	0.056931
36.67 	0.051318 	4930 	0.051200
36.71 	0.060760 	4921 	0.059570
36.75 	0.052589 	4944 	0.051997
36.79 	0.057305 	4921 	0.056829
36.83 	0.057986 	4915 	0.056675
36.87 	0.054612 	4944 	0.053901
36.91 	0.063145 	4941 	0.062315
36.95 	0.055950 	4933 	0.055000
36.99 	0.054103 	4935 	0.053154
37.03 	0.056661 	4924 	0.056185
37.07 	0.055319 	4935 	0.054251
37.11 	0.055117 	4935 	0.053455
37.15 	0.053779 	4909 	0.053063
37.19 	0.055025 	4925 	0.054074
37.23 	0.061814 	4918 	0.060623
37.27 	0.057417 	4894 	0.056460
37.31 	0.062006 	4935 	0.060700
37.35 	0.058931 	4938 	0.058456
37.39 	0.052119 	4931 	0.051763
37.43 	0.051095 	4932 	0.050620
37.47 	0.054778 	4929 	0.053233
37.51 	0.052301 	4933 	0.051707
37.55 	0.051521 	4930 	0.050808
37.59 	0.054730 	4915 	0.053400
37.63 	0.053669 	4919 	0.052836
37.67 	0.056485 	4904 	0.055529
37.71 	0.052952 	4929 	0.051882
37.75 	0.050000 	4940 	0.049051
37.79 	0.054564 	4930 	0.053594
37.83 	0.053455 	4920 	0.052265
37.87 	0.057097 	4939 	0.056504
37.91 	0.054564 	4930 	0.053613
37.95 	0.053241 	4921 	0.052646
37.99 	0.054967 	4912 	0.054352
38.03 	0.056631 	4909 	0.055776
38.07 	0.056427 	4909 	0.055592
38.11 	0.060385 	4935 	0.059554
38.15 	0.052054 	4918 	0.051339
38.19 	0.055375 	4930 	0.054781
38.23 	0.061968 	4938 	0.060051
38.27 	0.057404 	4930 	0.056691
38.31 	0.059265 	4927 	0.058552
38.35 	0.061080 	4928 	0.059534
38.39 	0.068242 	4909 	0.066333
38.43 	0.069365 	4916 	0.068770
38.47 	0.066639 	4907 	0.064968
38.51 	0.068735 	4932 	0.067072
38.55 	0.069692 	4936 	0.068743
38.59 	0.070268 	4924 	0.068821
38.63 	0.067831 	4924 	0.066403
38.67 	0.075755 	4937 	0.074193
38.71 	0.066409 	4924 	0.065200
38.75 	0.065760 	4927 	0.064552
38.79 	0.066275 	4934 	0.065088
38.83 	0.054889 	4919 	0.053817
38.87 	0.055997 	4911 	0.055281
38.91 	0.056700 	4903 	0.056103
38.95 	0.046360 	4918 	0.045507
38.99 	0.050233 	4937 	0.049996
39.03 	0.051885 	4934 	0.050816
39.07 	0.045695 	4924 	0.045100
39.11 	0.052322 	4931 	0.051372
39.15 	0.046796 	4915 	0.046319
39.19 	0.050234 	4917 	0.049281
39.23 	0.045279 	4925 	0.044447
39.27 	0.043585 	4910 	0.043107
39.31 	0.050778 	4884 	0.049819
39.35 	0.047011 	4935 	0.046418
39.39 	0.044837 	4929 	0.044242
39.43 	0.047233 	4933 	0.046995
39.47 	0.040423 	4923 	0.040185
39.51 	0.044476 	4924 	0.043881
39.55 	0.047367 	4919 	0.046772
39.59 	0.039902 	4912 	0.039783
39.63 	0.041853 	4922 	0.041496
39.67 	0.042947 	4913 	0.042351
39.71 	0.043718 	4895 	0.043239
39.75 	0.044846 	4928 	0.044608
39.79 	0.041210 	4926 	0.040734
39.83 	0.038306 	4934 	0.037831
39.87 	0.047716 	4925 	0.047002
39.91 	0.045307 	4922 	0.044593
39.95 	0.037233 	4915 	0.037114
39.99 	0.043390 	4932 	0.043153
40.03 	0.042411 	4928 	0.041935
40.07 	0.042251 	4923 	0.041537
40.11 	0.045159 	4916 	0.044682
40.15 	0.048443 	4913 	0.047966
40.19 	0.044634 	4929 	0.043921
40.23 	0.043998 	4932 	0.043048
40.27 	0.039093 	4937 	0.038381
40.31 	0.041709 	4939 	0.041472
40.35 	0.046961 	4919 	0.046365
40.39 	0.045427 	4931 	0.045071
40.43 	0.038805 	4922 	0.038329
40.47 	0.040667 	4918 	0.040190
40.51 	0.041650 	4922 	0.041174
40.55 	0.037897 	4908 	0.037181
40.59 	0.043954 	4937 	0.043361
40.63 	0.043611 	4930 	0.043016
40.67 	0.038118 	4932 	0.037762
40.71 	0.042985 	4932 	0.042628
40.75 	0.038735 	4931 	0.038378
40.79 	0.039805 	4924 	0.038853
40.83 	0.043628 	4928 	0.043509
40.87 	0.042817 	4928 	0.041984
40.91 	0.038391 	4923 	0.038153
40.95 	0.039284 	4913 	0.038926
40.99 	0.042242 	4924 	0.042123
41.03 	0.038532 	4905 	0.038054
41.07 	0.037323 	4930 	0.037085
41.11 	0.042958 	4935 	0.042721
41.15 	0.044525 	4941 	0.043933
41.19 	0.042596 	4930 	0.042121
41.23 	0.036850 	4939 	0.036494
41.27 	0.040560 	4931 	0.040203
41.31 	0.043787 	4933 	0.043430
41.35 	0.042932 	4938 	0.042339
41.39 	0.036894 	4933 	0.036419
41.43 	0.036721 	4929 	0.036365
41.47 	0.038165 	4926 	0.037689
41.51 	0.041296 	4940 	0.041058
41.55 	0.044174 	4935 	0.043324
41.59 	0.043989 	4933 	0.043396
41.63 	0.037262 	4938 	0.037143
41.67 	0.042308 	4940 	0.041833
41.71 	0.039724 	4934 	0.039249
41.75 	0.045445 	4929 	0.044732
41.79 	0.039846 	4944 	0.039372
41.83 	0.041802 	4928 	0.041326
41.87 	0.042553 	4935 	0.041604
41.91 	0.032618 	4936 	0.032261
41.95 	0.038735 	4931 	0.038141
41.99 	0.042610 	4905 	0.041873
42.03 	0.040899 	4939 	0.040780
42.07 	0.035042 	4937 	0.034923
42.11 	0.041658 	4945 	0.041066
42.15 	0.037465 	4938 	0.037227
42.19 	0.040750 	4908 	0.040392
42.23 	0.033729 	4892 	0.033729
42.27 	0.043086 	4874 	0.042845
42.31 	0.038311 	4855 	0.038070
42.35 	0.035759 	4838 	0.034911
42.39 	0.043922 	4804 	0.043190
42.43 	0.041736 	4792 	0.041003
42.47 	0.036726 	4765 	0.036234
42.51 	0.036053 	4743 	0.035806
42.55 	0.039082 	4708 	0.038834
42.59 	0.039120 	4729 	0.038873
42.63 	0.036101 	4709 	0.035603
42.67 	0.035440 	4684 	0.035190
42.71 	0.037529 	4663 	0.037027
42.75 	0.038553 	4617 	0.037919
42.79 	0.041467 	4582 	0.040955
42.83 	0.033510 	4536 	0.033122
42.87 	0.038231 	4499 	0.037970
42.91 	0.032765 	4456 	0.032239
42.95 	0.031929 	4416 	0.031531
42.99 	0.037400 	4385 	0.037400
43.03 	0.043850 	4333 	0.042611
43.07 	0.035382 	4296 	0.034973
43.11 	0.038778 	4255 	0.038503
43.15 	0.039467 	4206 	0.039328
43.19 	0.038388 	4194 	0.037829
43.23 	0.036110 	4154 	0.035405
43.27 	0.040926 	4105 	0.040046
43.31 	0.035793 	4079 	0.035075
43.35 	0.034722 	4032 	0.034141
43.39 	0.039980 	4002 	0.039834
43.43 	0.036616 	3960 	0.036468
43.47 	0.037490 	3921 	0.037490
43.51 	0.032499 	3877 	0.032348
43.55 	0.038462 	2964 	0.038066
43.59 	0.037801 	1746 	0.036459
43.63 	0.030969 	1001 	0.030969
43.67 	0.041833 	502 	0.041833
43.71 	0.041841 	239 	0.041841
43.75 	0.000000 	16 	0.000000