File: Example_Data/25SC_s1_0010.004.dat
#F C:\frames\spec\25SC_s1_0010.004
#C title =s:10 frm:4 25SC_s1
#C wavelength =0.15406

#S 1  fr_average C:\frames\spec\25SC_s1_0010.004 C:\win32app\speccom\mask.axs chi 0 180 0 360 0.02
#C 2 theta =0.000000 to 180 deg
#C   q   =0.000000 to 81.568 nm^-1
#C  chi  =0.000000 to 360 deg
#C collumns:
#C  1 position (2theta or chi in degrees)
#C  2 average intensity (sum of all counts in the region divided with number of pixels)
#C  3 Number of pixels in region)
#C  4 error (sum of sqrt(intensity) for all pixels divided by number)
#N 4
#L TTh  Int  N_pix  Err
32.99 	0.032787 	61 	0.032787
33.03 	0.060388 	1391 	0.059546
33.07 	0.052683 	2050 	0.051826
33.11 	0.065529 	2579 	0.063939
33.15 	0.067356 	2999 	0.066574
33.19 	0.059545 	3342 	0.059019
33.23 	0.069543 	3523 	0.067548
33.27 	0.068871 	3630 	0.068225
33.31 	0.059836 	3660 	0.058236
33.35 	0.060639 	3694 	0.059212
33.39 	0.063288 	3729 	0.062502
33.43 	0.060888 	3761 	0.059798
33.47 	0.063454 	3798 	0.061912
33.51 	0.060026 	3815 	0.058644
33.55 	0.063492 	3843 	0.062882
33.59 	0.056443 	3880 	0.055688
33.63 	0.053330 	3919 	0.053031
33.67 	0.056904 	3954 	0.056312
33.71 	0.061635 	3975 	0.060014
33.75 	0.057514 	3999 	0.056196
33.79 	0.056174 	4041 	0.054411
33.83 	0.062469 	4050 	0.060276
33.87 	0.057893 	4111 	0.057039
33.91 	0.057363 	4149 	0.057081
33.95 	0.063143 	4181 	0.061882
33.99 	0.060476 	4200 	0.059221
34.03 	0.052309 	4244 	0.051343
34.07 	0.058107 	4268 	0.057283
34.11 	0.052766 	4302 	0.051813
34.15 	0.058878 	4331 	0.057931
34.19 	0.064420 	4362 	0.062540
34.23 	0.063282 	4393 	0.062616
34.27 	0.057666 	4422 	0.057004
34.31 	0.066397 	4458 	0.065346
34.35 	0.056423 	4484 	0.055770
34.39 	0.066637 	4502 	0.065726
34.43 	0.060586 	4539 	0.059295
34.47 	0.060758 	4592 	0.059865
34.51 	0.062527 	4606 	0.061383
34.55 	0.058152 	4643 	0.057269
34.59 	0.062246 	4675 	0.060868
34.63 	0.060934 	4710 	0.059939
34.67 	0.062012 	4741 	0.061518
34.71 	0.063156 	4766 	0.061804
34.75 	0.058444 	4808 	0.057084
34.79 	0.052653 	4824 	0.051682
34.83 	0.058618 	4862 	0.057172
34.87 	0.061422 	4868 	0.059818
34.91 	0.060426 	4882 	0.059826
34.95 	0.061554 	4890 	0.060356
34.99 	0.057178 	4897 	0.056580
35.03 	0.059073 	4943 	0.057888
35.07 	0.056883 	4940 	0.056053
35.11 	0.059834 	4947 	0.059361
35.15 	0.057120 	4937 	0.056170
35.19 	0.061109 	4942 	0.059786
35.23 	0.056623 	4945 	0.056149
35.27 	0.059822 	4948 	0.058875
35.31 	0.061423 	4933 	0.060592
35.35 	0.058276 	4942 	0.057328
35.39 	0.052781 	4945 	0.051596
35.43 	0.062234 	4933 	0.060928
35.47 	0.064287 	4931 	0.063080
35.51 	0.064758 	4926 	0.063450
35.55 	0.061881 	4945 	0.060815
35.59 	0.061476 	4945 	0.060055
35.63 	0.058871 	4943 	0.057568
35.67 	0.056253 	4942 	0.055186
35.71 	0.059348 	4937 	0.058280
35.75 	0.059826 	4931 	0.058499
35.79 	0.060219 	4932 	0.059368
35.83 	0.066518 	4946 	0.065808
35.87 	0.065610 	4923 	0.064183
35.91 	0.062919 	4927 	0.061492
35.95 	0.059793 	4917 	0.059316
35.99 	0.066410 	4939 	0.064750
36.03 	0.059276 	4943 	0.057854
36.07 	0.064993 	4939 	0.063925
36.11 	0.056604 	4929 	0.055534
36.15 	0.062158 	4939 	0.060972
36.19 	0.058704 	4940 	0.058112
36.23 	0.060588 	4935 	0.059519
36.27 	0.058883 	4925 	0.057674
36.31 	0.060471 	4928 	0.059025
36.35 	0.058430 	4929 	0.057360
36.39 	0.063402 	4921 	0.062926
36.43 	0.055601 	4928 	0.055006
36.47 	0.062601 	4936 	0.061059
36.51 	0.063045 	4933 	0.061501
36.55 	0.062310 	4927 	0.061359
36.59 	0.059931 	4939 	0.059101
36.63 	0.059420 	4931 	0.058707
36.67 	0.054158 	4930 	0.053445
36.71 	0.058525 	4921 	0.057691
36.75 	0.057646 	4944 	0.056303
36.79 	0.058525 	4921 	0.057096
36.83 	0.051882 	4915 	0.051167
36.87 	0.056634 	4944 	0.055568
36.91 	0.052216 	4941 	0.051149
36.95 	0.058180 	4933 	0.057348
36.99 	0.055319 	4935 	0.054726
37.03 	0.056661 	4924 	0.055234
37.07 	0.053090 	4935 	0.052141
37.11 	0.061196 	4935 	0.060009
37.15 	0.057649 	4909 	0.056814
37.19 	0.049340 	4925 	0.048745
37.23 	0.050020 	4918 	0.049544
37.27 	0.051696 	4894 	0.050858
37.31 	0.056940 	4935 	0.055753
37.35 	0.051843 	4938 	0.051250
37.39 	0.062056 	4931 	0.059898
37.43 	0.052920 	4932 	0.051732
37.47 	0.057212 	4929 	0.056381
37.51 	0.054733 	4933 	0.053902
37.55 	0.056187 	4930 	0.054622
37.59 	0.054934 	4915 	0.054100
37.63 	0.057532 	4919 	0.056818
37.67 	0.054853 	4904 	0.054375
37.71 	0.059444 	4929 	0.058850
37.75 	0.057490 	4940 	0.055711
37.79 	0.048276 	4930 	0.047919
37.83 	0.058333 	4920 	0.057381
37.87 	0.056084 	4939 	0.055096
37.91 	0.056592 	4930 	0.055622
37.95 	0.056696 	4921 	0.056101
37.99 	0.055375 	4912 	0.054540
38.03 	0.059075 	4909 	0.058359
38.07 	0.062538 	4909 	0.060987
38.11 	0.060588 	4935 	0.058669
38.15 	0.058967 	4918 	0.057995
38.19 	0.056187 	4930 	0.055355
38.23 	0.063183 	4938 	0.062234
38.27 	0.056187 	4930 	0.055474
38.31 	0.063933 	4927 	0.062863
38.35 	0.068385 	4928 	0.066939
38.39 	0.064575 	4909 	0.063501
38.43 	0.065297 	4916 	0.064344
38.47 	0.063379 	4907 	0.062185
38.51 	0.057786 	4932 	0.057192
38.55 	0.059968 	4936 	0.059374
38.59 	0.059504 	4924 	0.058791
38.63 	0.069659 	4924 	0.068826
38.67 	0.063196 	4937 	0.061654
38.71 	0.058489 	4924 	0.057775
38.75 	0.063122 	4927 	0.061695
38.79 	0.058573 	4934 	0.057742
38.83 	0.064851 	4919 	0.063422
38.87 	0.055997 	4911 	0.055281
38.91 	0.060779 	4903 	0.059345
38.95 	0.058357 	4918 	0.057285
38.99 	0.051246 	4937 	0.050652
39.03 	0.054114 	4934 	0.053165
39.07 	0.054427 	4924 	0.053575
39.11 	0.054553 	4931 	0.053345
39.15 	0.055544 	4915 	0.054591
39.19 	0.053285 	4917 	0.052212
39.23 	0.050558 	4925 	0.049845
39.27 	0.050509 	4910 	0.049913
39.31 	0.054668 	4884 	0.053089
39.35 	0.054509 	4935 	0.053678
39.39 	0.062284 	4929 	0.061096
39.43 	0.056963 	4933 	0.056132
39.47 	0.059720 	4923 	0.058887
39.51 	0.053818 	4924 	0.053085
39.55 	0.058752 	4919 	0.058395
39.59 	0.053950 	4912 	0.052638
39.63 	0.059529 	4922 	0.058696
39.67 	0.060655 	4913 	0.059563
39.71 	0.059857 	4895 	0.058641
39.75 	0.053369 	4928 	0.052655
39.79 	0.057044 	4926 	0.056331
39.83 	0.053912 	4934 	0.053199
39.87 	0.053604 	4925 	0.052534
39.91 	0.051199 	4922 	0.050366
39.95 	0.053306 	4915 	0.052710
39.99 	0.053325 	4932 	0.052256
40.03 	0.058644 	4928 	0.057575
40.07 	0.060329 	4923 	0.059377
40.11 	0.048210 	4916 	0.047852
40.15 	0.058620 	4913 	0.058382
40.19 	0.060864 	4929 	0.059795
40.23 	0.050487 	4932 	0.049774
40.27 	0.054284 	4937 	0.053335
40.31 	0.048795 	4939 	0.047846
40.35 	0.050213 	4919 	0.049737
40.39 	0.049888 	4931 	0.049275
40.43 	0.050589 	4922 	0.049518
40.47 	0.051240 	4918 	0.050764
40.51 	0.057903 	4922 	0.057408
40.55 	0.054197 	4908 	0.053242
40.59 	0.050435 	4937 	0.049585
40.63 	0.053144 	4930 	0.052174
40.67 	0.050487 	4932 	0.050368
40.71 	0.053731 	4932 	0.053018
40.75 	0.054756 	4931 	0.053924
40.79 	0.054427 	4924 	0.053714
40.83 	0.053369 	4928 	0.052061
40.87 	0.051542 	4928 	0.050829
40.91 	0.054641 	4923 	0.054047
40.95 	0.058213 	4913 	0.057498
40.99 	0.053615 	4924 	0.053139
41.03 	0.057085 	4905 	0.056607
41.07 	0.054564 	4930 	0.053970
41.11 	0.051469 	4935 	0.050638
41.15 	0.045537 	4941 	0.045182
41.19 	0.055172 	4930 	0.054321
41.23 	0.056287 	4939 	0.055456
41.27 	0.053336 	4931 	0.052386
41.31 	0.051693 	4933 	0.050486
41.35 	0.053868 	4938 	0.052682
41.39 	0.052909 	4933 	0.051583
41.43 	0.050923 	4929 	0.050329
41.47 	0.053390 	4926 	0.052558
41.51 	0.046154 	4940 	0.045917
41.55 	0.049645 	4935 	0.048814
41.59 	0.049463 	4933 	0.048869
41.63 	0.052450 	4938 	0.051620
41.67 	0.045142 	4940 	0.044549
41.71 	0.050466 	4934 	0.049635
41.75 	0.044634 	4929 	0.044277
41.79 	0.044701 	4944 	0.044345
41.83 	0.050122 	4928 	0.049290
41.87 	0.051266 	4935 	0.050673
41.91 	0.050648 	4936 	0.049699
41.95 	0.058203 	4931 	0.057609
41.99 	0.051172 	4905 	0.050456
42.03 	0.053655 	4939 	0.052113
42.07 	0.050435 	4937 	0.049249
42.11 	0.045096 	4945 	0.044622
42.15 	0.046780 	4938 	0.046306
42.19 	0.044621 	4908 	0.044144
42.23 	0.042518 	4892 	0.041800
42.27 	0.048831 	4874 	0.047989
42.31 	0.047580 	4855 	0.046977
42.35 	0.047127 	4838 	0.046522
42.39 	0.048085 	4804 	0.047353
42.43 	0.044032 	4792 	0.043665
42.47 	0.038825 	4765 	0.038333
42.51 	0.049547 	4743 	0.049053
42.55 	0.049065 	4708 	0.048443
42.59 	0.046733 	4729 	0.046485
42.63 	0.050966 	4709 	0.050344
42.67 	0.045474 	4684 	0.044599
42.71 	0.050611 	4663 	0.049606
42.75 	0.046134 	4617 	0.045373
42.79 	0.050196 	4582 	0.049685
42.83 	0.061508 	4536 	0.060733
42.87 	0.046899 	4499 	0.046378
42.91 	0.047801 	4456 	0.047406
42.95 	0.050951 	4416 	0.050155
42.99 	0.041505 	4385 	0.040837
43.03 	0.045003 	4333 	0.044463
43.07 	0.047719 	4296 	0.047310
43.11 	0.053349 	4255 	0.052936
43.15 	0.056110 	4206 	0.055414
43.19 	0.050310 	4194 	0.049751
43.23 	0.045258 	4154 	0.044694
43.27 	0.042387 	4105 	0.041531
43.31 	0.047070 	4079 	0.046065
43.35 	0.050347 	4032 	0.049911
43.39 	0.042729 	4002 	0.042143
43.43 	0.041919 	3960 	0.041623
43.47 	0.044887 	3921 	0.044289
43.51 	0.046428 	3877 	0.045521
43.55 	0.046896 	2964 	0.046303
43.59 	0.049255 	1746 	0.048249
43.63 	0.052947 	1001 	0.052362
43.67 	0.043825 	502 	0.043825
43.71 	0.041841 	239 	0.039390
43.75 	0.000000 	16 	0.000000