File: Example_Data/25SC_s1_0034.004.dat
#F C:\frames\spec\25SC_s1_0034.004
#C title =s:34 frm:4 25SC_s1
#C wavelength =0.15406

#S 1  fr_average C:\frames\spec\25SC_s1_0034.004 C:\win32app\speccom\mask.axs chi 0 180 0 360 0.02
#C 2 theta =0.000000 to 180 deg
#C   q   =0.000000 to 81.568 nm^-1
#C  chi  =0.000000 to 360 deg
#C collumns:
#C  1 position (2theta or chi in degrees)
#C  2 average intensity (sum of all counts in the region divided with number of pixels)
#C  3 Number of pixels in region)
#C  4 error (sum of sqrt(intensity) for all pixels divided by number)
#N 4
#L TTh  Int  N_pix  Err
32.99 	0.016393 	61 	0.016393
33.03 	0.061107 	1391 	0.060686
33.07 	0.052195 	2050 	0.051338
33.11 	0.056999 	2579 	0.055409
33.15 	0.060353 	2999 	0.059540
33.19 	0.054458 	3342 	0.053407
33.23 	0.059608 	3523 	0.058611
33.27 	0.071350 	3630 	0.069575
33.31 	0.048907 	3660 	0.047627
33.35 	0.063617 	3694 	0.061397
33.39 	0.058729 	3729 	0.057629
33.43 	0.059027 	3761 	0.057781
33.47 	0.054239 	3798 	0.053443
33.51 	0.060813 	3815 	0.059891
33.55 	0.059329 	3843 	0.058871
33.59 	0.064691 	3880 	0.063785
33.63 	0.068130 	3919 	0.066336
33.67 	0.058675 	3954 	0.057934
33.71 	0.065912 	3975 	0.065322
33.75 	0.059015 	3999 	0.058136
33.79 	0.061371 	4041 	0.060501
33.83 	0.060247 	4050 	0.059668
33.87 	0.055461 	4111 	0.054464
33.91 	0.059773 	4149 	0.058785
33.95 	0.060512 	4181 	0.059251
33.99 	0.051905 	4200 	0.050906
34.03 	0.052309 	4244 	0.051895
34.07 	0.058107 	4268 	0.056872
34.11 	0.059507 	4302 	0.058418
34.15 	0.057492 	4331 	0.056140
34.19 	0.060752 	4362 	0.059946
34.23 	0.056453 	4393 	0.055920
34.27 	0.055179 	4422 	0.054251
34.31 	0.058995 	4458 	0.057550
34.35 	0.062667 	4484 	0.062014
34.39 	0.054198 	4502 	0.053287
34.43 	0.060806 	4539 	0.060032
34.47 	0.059016 	4592 	0.058250
34.51 	0.059053 	4606 	0.058672
34.55 	0.062675 	4643 	0.061666
34.59 	0.056471 	4675 	0.055448
34.63 	0.054565 	4710 	0.054067
34.67 	0.058637 	4741 	0.058020
34.71 	0.056022 	4766 	0.055039
34.75 	0.061148 	4808 	0.060173
34.79 	0.062189 	4824 	0.060853
34.83 	0.060058 	4862 	0.059214
34.87 	0.063681 	4868 	0.062358
34.91 	0.063908 	4882 	0.062588
34.95 	0.056851 	4890 	0.056252
34.99 	0.057586 	4897 	0.056390
35.03 	0.065547 	4943 	0.063602
35.07 	0.059717 	4940 	0.058649
35.11 	0.060845 	4947 	0.060253
35.15 	0.061171 	4937 	0.058996
35.19 	0.054027 	4942 	0.053316
35.23 	0.057836 	4945 	0.056889
35.27 	0.054770 	4948 	0.054178
35.31 	0.058382 	4933 	0.057670
35.35 	0.050587 	4942 	0.049639
35.39 	0.059858 	4945 	0.059385
35.43 	0.057166 	4933 	0.056078
35.47 	0.053539 	4931 	0.052351
35.51 	0.052375 	4926 	0.051305
35.55 	0.060263 	4945 	0.059671
35.59 	0.060263 	4945 	0.058329
35.63 	0.055837 	4943 	0.055007
35.67 	0.059490 	4942 	0.058542
35.71 	0.055094 	4937 	0.054007
35.75 	0.054553 	4931 	0.054315
35.79 	0.062247 	4932 	0.060940
35.83 	0.057825 	4946 	0.057114
35.87 	0.056673 	4923 	0.055840
35.91 	0.060077 	4927 	0.059007
35.95 	0.053081 	4917 	0.052605
35.99 	0.058109 	4939 	0.057041
36.03 	0.057253 	4943 	0.056068
36.07 	0.053250 	4939 	0.052182
36.11 	0.050112 	4929 	0.049636
36.15 	0.058514 	4939 	0.057308
36.19 	0.063158 	4940 	0.062328
36.23 	0.054711 	4935 	0.053524
36.27 	0.055838 	4925 	0.055481
36.31 	0.053571 	4928 	0.052739
36.35 	0.057821 	4929 	0.057583
36.39 	0.055883 	4921 	0.054296
36.43 	0.056818 	4928 	0.056105
36.47 	0.054295 	4936 	0.053820
36.51 	0.056355 	4933 	0.055524
36.55 	0.052162 	4927 	0.051805
36.59 	0.056287 	4939 	0.055812
36.63 	0.054147 	4931 	0.053078
36.67 	0.051521 	4930 	0.050808
36.71 	0.055477 	4921 	0.054762
36.75 	0.058657 	4944 	0.057117
36.79 	0.050599 	4921 	0.049766
36.83 	0.058596 	4915 	0.058000
36.87 	0.054814 	4944 	0.053629
36.91 	0.054038 	4941 	0.053326
36.95 	0.056152 	4933 	0.055202
36.99 	0.050659 	4935 	0.050065
37.03 	0.051787 	4924 	0.051430
37.07 	0.054711 	4935 	0.053762
37.11 	0.051874 	4935 	0.051162
37.15 	0.054797 	4909 	0.054320
37.19 	0.056244 	4925 	0.055411
37.23 	0.061814 	4918 	0.060623
37.27 	0.051900 	4894 	0.051302
37.31 	0.052685 	4935 	0.051735
37.35 	0.057311 	4938 	0.056243
37.39 	0.054756 	4931 	0.053449
37.43 	0.057989 	4932 	0.057632
37.47 	0.052140 	4929 	0.051546
37.51 	0.052504 	4933 	0.051791
37.55 	0.056592 	4930 	0.055404
37.59 	0.051272 	4915 	0.050437
37.63 	0.054686 	4919 	0.053376
37.67 	0.052610 	4904 	0.052252
37.71 	0.053763 	4929 	0.052813
37.75 	0.052024 	4940 	0.050838
37.79 	0.055781 	4930 	0.054949
37.83 	0.053862 	4920 	0.053147
37.87 	0.051630 	4939 	0.050800
37.91 	0.050507 	4930 	0.050032
37.95 	0.050396 	4921 	0.049563
37.99 	0.052321 	4912 	0.051725
38.03 	0.056223 	4909 	0.055507
38.07 	0.057038 	4909 	0.056322
38.11 	0.057751 	4935 	0.056682
38.15 	0.060187 	4918 	0.059234
38.19 	0.057606 	4930 	0.056775
38.23 	0.059538 	4938 	0.058451
38.27 	0.064300 	4930 	0.063112
38.31 	0.065354 	4927 	0.064879
38.35 	0.065747 	4928 	0.064677
38.39 	0.066612 	4909 	0.065180
38.43 	0.068145 	4916 	0.066953
38.47 	0.063990 	4907 	0.062796
38.51 	0.057380 	4932 	0.056311
38.55 	0.065640 	4936 	0.064097
38.59 	0.054630 	4924 	0.054273
38.63 	0.059301 	4924 	0.058350
38.67 	0.054081 	4937 	0.052776
38.71 	0.052600 	4924 	0.051886
38.75 	0.056018 	4927 	0.055305
38.79 	0.053506 	4934 	0.052200
38.83 	0.048181 	4919 	0.047347
38.87 	0.050092 	4911 	0.049495
38.91 	0.052417 	4903 	0.051680
38.95 	0.057137 	4918 	0.055708
38.99 	0.046992 	4937 	0.046517
39.03 	0.057154 	4934 	0.056205
39.07 	0.052396 	4924 	0.051564
39.11 	0.046846 	4931 	0.046134
39.15 	0.052492 	4915 	0.051777
39.19 	0.051454 	4917 	0.050978
39.23 	0.056447 	4925 	0.055614
39.27 	0.052749 	4910 	0.052272
39.31 	0.055897 	4884 	0.055057
39.35 	0.053293 	4935 	0.052462
39.39 	0.046257 	4929 	0.045168
39.43 	0.052098 	4933 	0.051267
39.47 	0.054845 	4923 	0.054131
39.51 	0.055443 	4924 	0.054590
39.55 	0.051230 	4919 	0.050258
39.59 	0.051507 	4912 	0.050910
39.63 	0.049167 	4922 	0.048334
39.67 	0.049461 	4913 	0.048864
39.71 	0.059448 	4895 	0.058252
39.75 	0.056209 	4928 	0.054902
39.79 	0.054202 	4926 	0.053251
39.83 	0.050061 	4934 	0.049586
39.87 	0.054213 	4925 	0.053262
39.91 	0.055465 	4922 	0.054394
39.95 	0.053306 	4915 	0.052591
39.99 	0.051095 	4932 	0.050501
40.03 	0.053166 	4928 	0.052195
40.07 	0.057079 	4923 	0.056008
40.11 	0.054719 	4916 	0.053766
40.15 	0.057806 	4913 	0.056494
40.19 	0.054169 	4929 	0.053575
40.23 	0.051703 	4932 	0.051109
40.27 	0.052866 	4937 	0.051917
40.31 	0.049403 	4939 	0.048810
40.35 	0.054483 	4919 	0.053411
40.39 	0.050902 	4931 	0.050071
40.43 	0.053434 	4922 	0.052600
40.47 	0.058967 	4918 	0.057419
40.51 	0.050589 	4922 	0.049994
40.55 	0.053993 	4908 	0.052800
40.59 	0.053069 	4937 	0.052475
40.63 	0.060243 	4930 	0.059036
40.67 	0.042985 	4932 	0.042509
40.71 	0.050892 	4932 	0.050061
40.75 	0.047455 	4931 	0.046861
40.79 	0.053615 	4924 	0.052663
40.83 	0.047890 	4928 	0.047295
40.87 	0.049107 	4928 	0.048751
40.91 	0.047532 	4923 	0.047175
40.95 	0.049257 	4913 	0.048661
40.99 	0.044476 	4924 	0.043881
41.03 	0.045464 	4905 	0.044747
41.07 	0.052535 	4930 	0.051328
41.11 	0.050456 	4935 	0.049625
41.15 	0.053430 	4941 	0.052601
41.19 	0.054970 	4930 	0.054494
41.23 	0.050415 	4939 	0.049466
41.27 	0.047860 	4931 	0.047504
41.31 	0.052909 	4933 	0.051939
41.35 	0.050223 	4938 	0.049511
41.39 	0.048652 	4933 	0.047939
41.43 	0.046054 	4929 	0.045579
41.47 	0.049533 	4926 	0.048820
41.51 	0.054049 	4940 	0.052744
41.55 	0.048227 	4935 	0.047277
41.59 	0.051693 	4933 	0.051099
41.63 	0.048805 	4938 	0.048449
41.67 	0.048988 	4940 	0.048395
41.71 	0.049250 	4934 	0.048656
41.75 	0.046663 	4929 	0.046306
41.79 	0.047937 	4944 	0.047108
41.83 	0.050528 	4928 	0.049696
41.87 	0.047619 	4935 	0.046531
41.91 	0.049230 	4936 	0.048399
41.95 	0.051308 	4931 	0.050932
41.99 	0.049745 	4905 	0.049029
42.03 	0.045151 	4939 	0.044439
42.07 	0.045777 	4937 	0.045184
42.11 	0.047523 	4945 	0.046556
42.15 	0.043337 	4938 	0.042863
42.19 	0.047881 	4908 	0.046787
42.23 	0.048446 	4892 	0.047349
42.27 	0.039803 	4874 	0.039442
42.31 	0.038723 	4855 	0.038120
42.35 	0.046093 	4838 	0.045488
42.39 	0.043089 	4804 	0.042723
42.43 	0.048205 	4792 	0.047594
42.47 	0.043232 	4765 	0.042248
42.51 	0.039848 	4743 	0.039354
42.55 	0.047579 	4708 	0.046956
42.59 	0.040389 	4729 	0.040141
42.63 	0.045020 	4709 	0.044398
42.67 	0.044193 	4684 	0.043568
42.71 	0.041604 	4663 	0.040474
42.75 	0.047433 	4617 	0.046545
42.79 	0.046923 	4582 	0.046028
42.83 	0.049162 	4536 	0.048258
42.87 	0.046677 	4499 	0.046417
42.91 	0.046230 	4456 	0.045835
42.95 	0.042346 	4416 	0.041683
42.99 	0.043330 	4385 	0.042929
43.03 	0.049850 	4333 	0.049309
43.07 	0.043063 	4296 	0.041972
43.11 	0.047944 	4255 	0.047531
43.15 	0.046125 	4206 	0.045428
43.19 	0.045780 	4194 	0.045221
43.23 	0.045258 	4154 	0.044835
43.27 	0.051888 	4105 	0.051174
43.31 	0.045354 	4079 	0.045211
43.35 	0.048115 	4032 	0.048115
43.39 	0.040980 	4002 	0.040540
43.43 	0.042424 	3960 	0.041537
43.47 	0.043611 	3921 	0.043313
43.51 	0.051586 	3877 	0.050529
43.55 	0.046221 	2964 	0.046221
43.59 	0.036082 	1746 	0.035411
43.63 	0.046953 	1001 	0.045783
43.67 	0.043825 	502 	0.043825
43.71 	0.066946 	239 	0.066946
43.75 	0.000000 	16 	0.000000