File: Example_Data/25SC_s1_0002.002.dat
#F C:\frames\spec\25SC_s1_0002.002
#C title =s:2 frm:2 25SC_s1
#C wavelength =0.15406

#S 1  fr_average C:\frames\spec\25SC_s1_0002.002 C:\win32app\speccom\mask.axs chi 0 180 0 360 0.02
#C 2 theta =0.000000 to 180 deg
#C   q   =0.000000 to 81.568 nm^-1
#C  chi  =0.000000 to 360 deg
#C collumns:
#C  1 position (2theta or chi in degrees)
#C  2 average intensity (sum of all counts in the region divided with number of pixels)
#C  3 Number of pixels in region)
#C  4 error (sum of sqrt(intensity) for all pixels divided by number)
#N 4
#L TTh  Int  N_pix  Err
32.99 	0.081967 	61 	0.081967
33.03 	0.076923 	1391 	0.074817
33.07 	0.086341 	2050 	0.084627
33.11 	0.074835 	2579 	0.073700
33.15 	0.078026 	2999 	0.075291
33.19 	0.070616 	3342 	0.068455
33.23 	0.066988 	3523 	0.066157
33.27 	0.075482 	3630 	0.074191
33.31 	0.076230 	3660 	0.074309
33.35 	0.069572 	3694 	0.068119
33.39 	0.061947 	3729 	0.061004
33.43 	0.071258 	3761 	0.070167
33.47 	0.072933 	3798 	0.071391
33.51 	0.065793 	3815 	0.064104
33.55 	0.069997 	3843 	0.068930
33.59 	0.081186 	3880 	0.079525
33.63 	0.077316 	3919 	0.075970
33.67 	0.076631 	3954 	0.074705
33.71 	0.066667 	3975 	0.065488
33.75 	0.076269 	3999 	0.074804
33.79 	0.076219 	4041 	0.074455
33.83 	0.075062 	4050 	0.073760
33.87 	0.069813 	4111 	0.068530
33.91 	0.060255 	4149 	0.058985
33.95 	0.068644 	4181 	0.068083
33.99 	0.073333 	4200 	0.071520
34.03 	0.067154 	4244 	0.065475
34.07 	0.067479 	4268 	0.066518
34.11 	0.068805 	4302 	0.067693
34.15 	0.079196 	4331 	0.077303
34.19 	0.066942 	4362 	0.065733
34.23 	0.070567 	4393 	0.069633
34.27 	0.073496 	4422 	0.071752
34.31 	0.075370 	4458 	0.073772
34.35 	0.066905 	4484 	0.065337
34.39 	0.071968 	4502 	0.070797
34.43 	0.066755 	4539 	0.065722
34.47 	0.072517 	4592 	0.071114
34.51 	0.074251 	4606 	0.072450
34.55 	0.070213 	4643 	0.068825
34.59 	0.072941 	4675 	0.071312
34.63 	0.072187 	4710 	0.070321
34.67 	0.069606 	4741 	0.068988
34.71 	0.063575 	4766 	0.062838
34.75 	0.067804 	4808 	0.066951
34.79 	0.059909 	4824 	0.058694
34.83 	0.071781 	4862 	0.070316
34.87 	0.072104 	4868 	0.070178
34.91 	0.067186 	4882 	0.065746
34.95 	0.070143 	4890 	0.068686
34.99 	0.071268 	4897 	0.069693
35.03 	0.069796 	4943 	0.068492
35.07 	0.073482 	4940 	0.071921
35.11 	0.067111 	4947 	0.066519
35.15 	0.072716 	4937 	0.071055
35.19 	0.073654 	4942 	0.072232
35.23 	0.070172 	4945 	0.068395
35.27 	0.073363 	4948 	0.072179
35.31 	0.065275 	4933 	0.063137
35.35 	0.074261 	4942 	0.072839
35.39 	0.069565 	4945 	0.068144
35.43 	0.067707 	4933 	0.066757
35.47 	0.070371 	4931 	0.069064
35.51 	0.069834 	4926 	0.068407
35.55 	0.070576 	4945 	0.069372
35.59 	0.073003 	4945 	0.071562
35.63 	0.072628 	4943 	0.071324
35.67 	0.068393 	4942 	0.067564
35.71 	0.071501 	4937 	0.069840
35.75 	0.068140 	4931 	0.066952
35.79 	0.073804 	4932 	0.072022
35.83 	0.078043 	4946 	0.076503
35.87 	0.069673 	4923 	0.068483
35.91 	0.076314 	4927 	0.074036
35.95 	0.065894 	4917 	0.064941
35.99 	0.074307 	4939 	0.072883
36.03 	0.072021 	4943 	0.070816
36.07 	0.073294 	4939 	0.071515
36.11 	0.069588 	4929 	0.068043
36.15 	0.074509 	4939 	0.073442
36.19 	0.071660 	4940 	0.070830
36.23 	0.073151 	4935 	0.071964
36.27 	0.070051 	4925 	0.068742
36.31 	0.070414 	4928 	0.068512
36.35 	0.078921 	4929 	0.076781
36.39 	0.084129 	4921 	0.082463
36.43 	0.069805 	4928 	0.068498
36.47 	0.071110 	4936 	0.069330
36.51 	0.066491 	4933 	0.065422
36.55 	0.074893 	4927 	0.073348
36.59 	0.074104 	4939 	0.072799
36.63 	0.067735 	4931 	0.066190
36.67 	0.072617 	4930 	0.070834
36.71 	0.074375 	4921 	0.072232
36.75 	0.073625 	4944 	0.071453
36.79 	0.079049 	4921 	0.077740
36.83 	0.067345 	4915 	0.066511
36.87 	0.074636 	4944 	0.072859
36.91 	0.073265 	4941 	0.071368
36.95 	0.070748 	4933 	0.069798
36.99 	0.071530 	4935 	0.069037
37.03 	0.067425 	4924 	0.066116
37.07 	0.069706 	4935 	0.068163
37.11 	0.072543 	4935 	0.070743
37.15 	0.074557 	4909 	0.072767
37.19 	0.071878 	4925 	0.070431
37.23 	0.075030 	4918 	0.073244
37.27 	0.067838 	4894 	0.066761
37.31 	0.068896 	4935 	0.067471
37.35 	0.067639 	4938 	0.066808
37.39 	0.070168 	4931 	0.068030
37.43 	0.069749 	4932 	0.067947
37.47 	0.074457 	4929 	0.072536
37.51 	0.065072 	4933 	0.064241
37.55 	0.068763 	4930 	0.067555
37.59 	0.066124 	4915 	0.065270
37.63 	0.071356 	4919 	0.069689
37.67 	0.067088 	4904 	0.065655
37.71 	0.064922 	4929 	0.063852
37.75 	0.062551 	4940 	0.061721
37.79 	0.067140 	4930 	0.065833
37.83 	0.062398 	4920 	0.060593
37.87 	0.058109 	4939 	0.056923
37.91 	0.066531 	4930 	0.065700
37.95 	0.059338 	4921 	0.058266
37.99 	0.061075 	4912 	0.060359
38.03 	0.067631 	4909 	0.066080
38.07 	0.068446 	4909 	0.067610
38.11 	0.064032 	4935 	0.063083
38.15 	0.064864 	4918 	0.064387
38.19 	0.074037 	4930 	0.072235
38.23 	0.074929 	4938 	0.072794
38.27 	0.072008 	4930 	0.070444
38.31 	0.083418 	4927 	0.082447
38.35 	0.084416 	4928 	0.083108
38.39 	0.092483 	4909 	0.090216
38.43 	0.096827 	4916 	0.093371
38.47 	0.088241 	4907 	0.086092
38.51 	0.092863 	4932 	0.090211
38.55 	0.097650 	4936 	0.095039
38.59 	0.085500 	4924 	0.083001
38.63 	0.088140 	4924 	0.086693
38.67 	0.081426 	4937 	0.079528
38.71 	0.074736 	4924 	0.073665
38.75 	0.070428 	4927 	0.069002
38.79 	0.071747 	4934 	0.069828
38.83 	0.065664 	4919 	0.065068
38.87 	0.066992 	4911 	0.066038
38.91 	0.066082 	4903 	0.064887
38.95 	0.058154 	4918 	0.056804
38.99 	0.058538 	4937 	0.057944
39.03 	0.058370 	4934 	0.057302
39.07 	0.056864 	4924 	0.055060
39.11 	0.062665 	4931 	0.061477
39.15 	0.052289 	4915 	0.051455
39.19 	0.065894 	4917 	0.064583
39.23 	0.055431 	4925 	0.054837
39.27 	0.057637 	4910 	0.057041
39.31 	0.055692 	4884 	0.054972
39.35 	0.049645 	4935 	0.048696
39.39 	0.054575 	4929 	0.054218
39.43 	0.060409 	4933 	0.059084
39.47 	0.052813 	4923 	0.051861
39.51 	0.054021 	4924 	0.053307
39.55 	0.052450 	4919 	0.051854
39.59 	0.057818 	4912 	0.057341
39.63 	0.053434 	4922 	0.052958
39.67 	0.050071 	4913 	0.049237
39.71 	0.049438 	4895 	0.049199
39.75 	0.052963 	4928 	0.052249
39.79 	0.053796 	4926 	0.052469
39.83 	0.049655 	4934 	0.049062
39.87 	0.053401 	4925 	0.052449
39.91 	0.052215 	4922 	0.051262
39.95 	0.050051 	4915 	0.049097
39.99 	0.052514 	4932 	0.051920
40.03 	0.051948 	4928 	0.050997
40.07 	0.055657 	4923 	0.054567
40.11 	0.051058 	4916 	0.050224
40.15 	0.054956 	4913 	0.054102
40.19 	0.054575 	4929 	0.054218
40.23 	0.048459 	4932 	0.047509
40.27 	0.048613 	4937 	0.048118
40.31 	0.052845 	4939 	0.052489
40.35 	0.054279 	4919 	0.053088
40.39 	0.055364 	4931 	0.054414
40.43 	0.047338 	4922 	0.046862
40.47 	0.049207 	4918 	0.048969
40.51 	0.053637 	4922 	0.053161
40.55 	0.053382 	4908 	0.052169
40.59 	0.054689 	4937 	0.053977
40.63 	0.049899 	4930 	0.049186
40.67 	0.054136 	4932 	0.053661
40.71 	0.046229 	4932 	0.045991
40.75 	0.052930 	4931 	0.051980
40.79 	0.051381 	4924 	0.050905
40.83 	0.051136 	4928 	0.050166
40.87 	0.059862 	4928 	0.058535
40.91 	0.049563 	4923 	0.049206
40.95 	0.055567 	4913 	0.054116
40.99 	0.047522 	4924 	0.046789
41.03 	0.053007 	4905 	0.052410
41.07 	0.050101 	4930 	0.049507
41.11 	0.054103 	4935 	0.052798
41.15 	0.052419 	4941 	0.051589
41.19 	0.054564 	4930 	0.053970
41.23 	0.053857 	4939 	0.053027
41.27 	0.047658 	4931 	0.047301
41.31 	0.050274 	4933 	0.049324
41.35 	0.049210 	4938 	0.048380
41.39 	0.055950 	4933 	0.054624
41.43 	0.051735 	4929 	0.051022
41.47 	0.050548 	4926 	0.049954
41.51 	0.050202 	4940 	0.049254
41.55 	0.054509 	4935 	0.053796
41.59 	0.052706 	4933 	0.052469
41.63 	0.050020 	4938 	0.048953
41.67 	0.050405 	4940 	0.049931
41.71 	0.047629 	4934 	0.047035
41.75 	0.051735 	4929 	0.051140
41.79 	0.051173 	4944 	0.050225
41.83 	0.045860 	4928 	0.045147
41.87 	0.049037 	4935 	0.047969
41.91 	0.047204 	4936 	0.046373
41.95 	0.048266 	4931 	0.047791
41.99 	0.048726 	4905 	0.048129
42.03 	0.050618 	4939 	0.049431
42.07 	0.046587 	4937 	0.046231
42.11 	0.050758 	4945 	0.049554
42.15 	0.045160 	4938 	0.044429
42.19 	0.046862 	4908 	0.046385
42.23 	0.047424 	4892 	0.046945
42.27 	0.044727 	4874 	0.044246
42.31 	0.047580 	4855 	0.046856
42.35 	0.049607 	4838 	0.049244
42.39 	0.049542 	4804 	0.048810
42.43 	0.042780 	4792 	0.042046
42.47 	0.049738 	4765 	0.049246
42.51 	0.043643 	4743 	0.043149
42.55 	0.042268 	4708 	0.041128
42.59 	0.047790 	4729 	0.046923
42.63 	0.046294 	4709 	0.045652
42.67 	0.044620 	4684 	0.044120
42.71 	0.048467 	4663 	0.047713
42.75 	0.043318 	4617 	0.042557
42.79 	0.045832 	4582 	0.045448
42.83 	0.048942 	4536 	0.048554
42.87 	0.048455 	4499 	0.047414
42.91 	0.042639 	4456 	0.041850
42.95 	0.043931 	4416 	0.043135
42.99 	0.045610 	4385 	0.045076
43.03 	0.048004 	4333 	0.047193
43.07 	0.044693 	4296 	0.044147
43.11 	0.045358 	4255 	0.044395
43.15 	0.042558 	4206 	0.041583
43.19 	0.047210 	4194 	0.046093
43.23 	0.043332 	4154 	0.042909
43.27 	0.049939 	4105 	0.049083
43.31 	0.044864 	4079 	0.044146
43.35 	0.048611 	4032 	0.047716
43.39 	0.039480 	4002 	0.039480
43.43 	0.046465 	3960 	0.045873
43.47 	0.042591 	3921 	0.042143
43.51 	0.048233 	3877 	0.047478
43.55 	0.044197 	2964 	0.043011
43.59 	0.046392 	1746 	0.046056
43.63 	0.040959 	1001 	0.040959
43.67 	0.039841 	502 	0.039841
43.71 	0.037657 	239 	0.037657
43.75 	0.125000 	16 	0.125000