File: Example_Data/25SC_s1_0021.002.dat
#F C:\frames\spec\25SC_s1_0021.002
#C title =s:21 frm:2 25SC_s1
#C wavelength =0.15406

#S 1  fr_average C:\frames\spec\25SC_s1_0021.002 C:\win32app\speccom\mask.axs chi 0 180 0 360 0.02
#C 2 theta =0.000000 to 180 deg
#C   q   =0.000000 to 81.568 nm^-1
#C  chi  =0.000000 to 360 deg
#C collumns:
#C  1 position (2theta or chi in degrees)
#C  2 average intensity (sum of all counts in the region divided with number of pixels)
#C  3 Number of pixels in region)
#C  4 error (sum of sqrt(intensity) for all pixels divided by number)
#N 4
#L TTh  Int  N_pix  Err
32.99 	0.081967 	61 	0.081967
33.03 	0.058231 	1391 	0.056968
33.07 	0.063415 	2050 	0.061700
33.11 	0.056223 	2579 	0.055542
33.15 	0.061020 	2999 	0.060239
33.19 	0.061939 	3342 	0.060887
33.23 	0.062163 	3523 	0.060833
33.27 	0.059504 	3630 	0.058859
33.31 	0.058743 	3660 	0.058263
33.35 	0.057932 	3694 	0.057297
33.39 	0.055243 	3729 	0.053986
33.43 	0.053443 	3761 	0.052509
33.47 	0.060558 	3798 	0.058862
33.51 	0.059502 	3815 	0.058734
33.55 	0.066354 	3843 	0.064983
33.59 	0.058763 	3880 	0.057404
33.63 	0.059709 	3919 	0.058513
33.67 	0.059686 	3954 	0.058353
33.71 	0.059874 	3975 	0.058401
33.75 	0.065766 	3999 	0.065034
33.79 	0.060381 	4041 	0.059076
33.83 	0.070123 	4050 	0.067954
33.87 	0.058866 	4111 	0.057727
33.91 	0.060014 	4149 	0.059309
33.95 	0.062425 	4181 	0.061024
33.99 	0.055000 	4200 	0.054140
34.03 	0.058435 	4244 	0.057745
34.07 	0.057638 	4268 	0.056677
34.11 	0.056950 	4302 	0.055452
34.15 	0.052644 	4331 	0.051967
34.19 	0.061440 	4362 	0.059694
34.23 	0.054405 	4393 	0.053183
34.27 	0.058345 	4422 	0.057285
34.31 	0.067519 	4458 	0.066599
34.35 	0.064897 	4484 	0.063199
34.39 	0.061306 	4502 	0.060525
34.43 	0.052434 	4539 	0.051531
34.47 	0.053136 	4592 	0.052243
34.51 	0.052757 	4606 	0.051973
34.55 	0.062460 	4643 	0.061703
34.59 	0.061818 	4675 	0.060565
34.63 	0.054565 	4710 	0.053570
34.67 	0.058216 	4741 	0.057845
34.71 	0.061057 	4766 	0.059951
34.75 	0.055532 	4808 	0.054314
34.79 	0.056799 	4824 	0.056192
34.83 	0.054093 	4862 	0.053611
34.87 	0.059573 	4868 	0.058971
34.91 	0.057763 	4882 	0.057283
34.95 	0.061963 	4890 	0.061604
34.99 	0.057382 	4897 	0.056425
35.03 	0.058264 	4943 	0.057198
35.07 	0.059717 	4940 	0.058274
35.11 	0.067314 	4947 	0.066465
35.15 	0.060158 	4937 	0.058359
35.19 	0.052206 	4942 	0.051613
35.23 	0.060061 	4945 	0.058758
35.27 	0.061641 	4948 	0.059609
35.31 	0.064058 	4933 	0.063227
35.35 	0.060502 	4942 	0.058941
35.39 	0.052983 	4945 	0.052627
35.43 	0.055544 	4933 	0.054832
35.47 	0.054756 	4931 	0.053924
35.51 	0.058262 	4926 	0.057291
35.55 	0.057230 	4945 	0.056756
35.59 	0.063903 	4945 	0.062837
35.63 	0.060490 	4943 	0.059522
35.67 	0.058276 	4942 	0.057328
35.71 	0.060361 	4937 	0.059036
35.75 	0.056581 	4931 	0.055630
35.79 	0.061436 	4932 	0.060129
35.83 	0.061868 	4946 	0.061631
35.87 	0.059720 	4923 	0.058530
35.91 	0.055815 	4927 	0.054864
35.95 	0.063657 	4917 	0.063180
35.99 	0.054464 	4939 	0.053397
36.03 	0.059073 	4943 	0.058481
36.07 	0.053857 	4939 	0.053383
36.11 	0.062487 	4929 	0.061180
36.15 	0.063171 	4939 	0.062103
36.19 	0.055870 	4940 	0.054309
36.23 	0.056535 	4935 	0.055348
36.27 	0.057056 	4925 	0.056204
36.31 	0.059456 	4928 	0.058386
36.35 	0.054981 	4929 	0.054149
36.39 	0.062995 	4921 	0.061686
36.43 	0.057224 	4928 	0.056035
36.47 	0.059765 	4936 	0.058697
36.51 	0.056963 	4933 	0.056013
36.55 	0.058859 	4927 	0.057789
36.59 	0.056287 	4939 	0.055338
36.63 	0.058203 	4931 	0.057015
36.67 	0.061258 	4930 	0.059832
36.71 	0.056289 	4921 	0.055575
36.75 	0.050971 	4944 	0.050615
36.79 	0.059134 	4921 	0.058420
36.83 	0.056155 	4915 	0.055440
36.87 	0.057039 	4944 	0.055617
36.91 	0.064157 	4941 	0.063209
36.95 	0.051693 	4933 	0.050980
36.99 	0.058359 	4935 	0.057409
37.03 	0.056255 	4924 	0.055422
37.07 	0.058967 	4935 	0.057879
37.11 	0.053293 	4935 	0.052818
37.15 	0.058668 	4909 	0.057952
37.19 	0.055228 	4925 	0.054019
37.23 	0.050427 	4918 	0.049355
37.27 	0.054761 	4894 	0.054043
37.31 	0.055319 	4935 	0.054370
37.35 	0.058121 	4938 	0.056678
37.39 	0.055972 	4931 	0.054903
37.43 	0.052717 	4932 	0.051767
37.47 	0.058227 	4929 	0.056801
37.51 	0.057774 	4933 	0.055993
37.55 	0.059838 	4930 	0.058016
37.59 	0.052289 	4915 	0.051931
37.63 	0.052043 	4919 	0.051090
37.67 	0.052202 	4904 	0.051247
37.71 	0.054575 	4929 	0.054080
37.75 	0.054049 	4940 	0.053456
37.79 	0.053347 	4930 	0.052396
37.83 	0.052033 	4920 	0.051318
37.87 	0.052237 	4939 	0.051644
37.91 	0.054564 	4930 	0.054089
37.95 	0.053851 	4921 	0.053137
37.99 	0.049674 	4912 	0.048720
38.03 	0.048482 	4909 	0.047766
38.07 	0.057038 	4909 	0.055606
38.11 	0.052888 	4935 	0.052175
38.15 	0.056527 	4918 	0.055455
38.19 	0.053550 	4930 	0.052837
38.23 	0.058728 	4938 	0.058016
38.27 	0.054361 	4930 	0.053173
38.31 	0.057845 	4927 	0.056874
38.35 	0.057224 	4928 	0.056630
38.39 	0.063149 	4909 	0.062433
38.43 	0.061229 	4916 	0.059273
38.47 	0.063990 	4907 	0.063274
38.51 	0.062044 	4932 	0.060975
38.55 	0.063614 	4936 	0.061914
38.59 	0.067831 	4924 	0.066403
38.63 	0.062348 	4924 	0.061396
38.67 	0.065424 	4937 	0.063625
38.71 	0.062348 	4924 	0.061277
38.75 	0.058250 	4927 	0.057299
38.79 	0.058776 	4934 	0.057569
38.83 	0.049400 	4919 	0.048686
38.87 	0.052331 	4911 	0.051616
38.91 	0.054252 	4903 	0.053775
38.95 	0.054087 	4918 	0.053491
38.99 	0.054081 	4937 	0.053014
39.03 	0.045805 	4934 	0.044736
39.07 	0.048335 	4924 	0.047621
39.11 	0.045427 	4931 	0.045189
39.15 	0.049847 	4915 	0.049490
39.19 	0.053691 	4917 	0.052738
39.23 	0.045279 	4925 	0.044684
39.27 	0.048269 	4910 	0.047911
39.31 	0.045250 	4884 	0.045010
39.35 	0.044174 	4935 	0.043225
39.39 	0.041996 	4929 	0.041521
39.43 	0.048855 	4933 	0.048380
39.47 	0.042048 	4923 	0.041334
39.51 	0.046710 	4924 	0.045639
39.55 	0.044521 	4919 	0.044045
39.59 	0.044788 	4912 	0.044192
39.63 	0.043072 	4922 	0.042715
39.67 	0.045186 	4913 	0.044471
39.71 	0.047395 	4895 	0.046677
39.75 	0.052557 	4928 	0.052081
39.79 	0.043646 	4926 	0.043170
39.83 	0.044386 	4934 	0.043911
39.87 	0.044467 	4925 	0.044110
39.91 	0.044697 	4922 	0.044340
39.95 	0.043947 	4915 	0.043232
39.99 	0.045215 	4932 	0.044859
40.03 	0.046266 	4928 	0.045672
40.07 	0.045501 	4923 	0.044787
40.11 	0.044752 	4916 	0.043918
40.15 	0.039894 	4913 	0.039179
40.19 	0.045040 	4929 	0.044208
40.23 	0.046229 	4932 	0.045754
40.27 	0.042941 	4937 	0.042585
40.31 	0.047176 	4939 	0.046108
40.35 	0.041269 	4919 	0.040911
40.39 	0.041168 	4931 	0.041168
40.43 	0.045916 	4922 	0.045559
40.47 	0.046360 	4918 	0.045884
40.51 	0.040431 	4922 	0.040193
40.55 	0.043806 	4908 	0.042971
40.59 	0.046182 	4937 	0.045351
40.63 	0.040771 	4930 	0.040058
40.67 	0.049270 	4932 	0.048795
40.71 	0.043390 	4932 	0.042915
40.75 	0.043196 	4931 	0.042959
40.79 	0.050366 	4924 	0.049771
40.83 	0.049107 	4928 	0.048751
40.87 	0.044237 	4928 	0.043880
40.91 	0.046313 	4923 	0.045956
40.95 	0.043761 	4913 	0.043404
40.99 	0.044070 	4924 	0.043475
41.03 	0.043629 	4905 	0.043271
41.07 	0.040365 	4930 	0.040009
41.11 	0.043769 	4935 	0.043413
41.15 	0.042704 	4941 	0.042230
41.19 	0.042191 	4930 	0.041715
41.23 	0.039887 	4939 	0.039649
41.27 	0.038735 	4931 	0.038259
41.31 	0.045003 	4933 	0.043578
41.35 	0.036047 	4938 	0.035454
41.39 	0.043989 	4933 	0.043396
41.43 	0.038344 	4929 	0.037869
41.47 	0.045676 	4926 	0.044487
41.51 	0.042510 	4940 	0.042036
41.55 	0.035664 	4935 	0.034951
41.59 	0.037503 	4933 	0.036909
41.63 	0.044350 	4938 	0.043875
41.67 	0.035223 	4940 	0.034748
41.71 	0.045805 	4934 	0.045211
41.75 	0.038953 	4929 	0.038715
41.79 	0.041262 	4944 	0.041144
41.83 	0.038352 	4928 	0.037877
41.87 	0.037690 	4935 	0.037077
41.91 	0.040316 	4936 	0.039723
41.95 	0.041979 	4931 	0.041504
41.99 	0.037309 	4905 	0.036831
42.03 	0.045353 	4939 	0.045116
42.07 	0.033219 	4937 	0.032981
42.11 	0.035592 	4945 	0.035236
42.15 	0.040097 	4938 	0.039504
42.19 	0.035045 	4908 	0.034567
42.23 	0.042110 	4892 	0.041750
42.27 	0.040419 	4874 	0.039938
42.31 	0.042430 	4855 	0.041827
42.35 	0.040926 	4838 	0.040684
42.39 	0.032473 	4804 	0.031863
42.43 	0.037354 	4792 	0.036743
42.47 	0.038615 	4765 	0.038246
42.51 	0.038372 	4743 	0.037878
42.55 	0.038870 	4708 	0.038497
42.59 	0.041658 	4729 	0.041039
42.63 	0.038225 	4709 	0.037333
42.67 	0.036721 	4684 	0.036346
42.71 	0.033455 	4663 	0.033078
42.75 	0.039853 	4617 	0.039472
42.79 	0.036010 	4582 	0.035755
42.83 	0.045414 	4536 	0.044510
42.87 	0.036008 	4499 	0.035748
42.91 	0.036804 	4456 	0.036673
42.95 	0.040761 	4416 	0.040098
42.99 	0.039225 	4385 	0.039091
43.03 	0.040157 	4333 	0.039211
43.07 	0.037244 	4296 	0.037108
43.11 	0.034548 	4255 	0.034410
43.15 	0.036139 	4206 	0.035860
43.19 	0.039342 	4194 	0.039202
43.23 	0.035388 	4154 	0.034965
43.27 	0.045067 	4105 	0.044782
43.31 	0.039470 	4079 	0.039327
43.35 	0.037450 	4032 	0.037305
43.39 	0.042729 	4002 	0.042290
43.43 	0.039394 	3960 	0.038950
43.47 	0.038256 	3921 	0.037807
43.51 	0.040753 	3877 	0.040300
43.55 	0.040148 	2964 	0.039753
43.59 	0.036082 	1746 	0.035747
43.63 	0.035964 	1001 	0.035379
43.67 	0.023904 	502 	0.023904
43.71 	0.071130 	239 	0.071130
43.75 	0.000000 	16 	0.000000