File: Example_Data/25SC_s1_0004.003.dat
#F C:\frames\spec\25SC_s1_0004.003
#C title =s:4 frm:3 25SC_s1
#C wavelength =0.15406

#S 1  fr_average C:\frames\spec\25SC_s1_0004.003 C:\win32app\speccom\mask.axs chi 0 180 0 360 0.02
#C 2 theta =0.000000 to 180 deg
#C   q   =0.000000 to 81.568 nm^-1
#C  chi  =0.000000 to 360 deg
#C collumns:
#C  1 position (2theta or chi in degrees)
#C  2 average intensity (sum of all counts in the region divided with number of pixels)
#C  3 Number of pixels in region)
#C  4 error (sum of sqrt(intensity) for all pixels divided by number)
#N 4
#L TTh  Int  N_pix  Err
32.99 	0.065574 	61 	0.065574
33.03 	0.071891 	1391 	0.070627
33.07 	0.057561 	2050 	0.056418
33.11 	0.069019 	2579 	0.067202
33.15 	0.063021 	2999 	0.061458
33.19 	0.057451 	3342 	0.056048
33.23 	0.056486 	3523 	0.054823
33.27 	0.053444 	3630 	0.051830
33.31 	0.062295 	3660 	0.060535
33.35 	0.058473 	3694 	0.056887
33.39 	0.060338 	3729 	0.059081
33.43 	0.062217 	3761 	0.061283
33.47 	0.061875 	3798 	0.060641
33.51 	0.056619 	3815 	0.055979
33.55 	0.059589 	3843 	0.057887
33.59 	0.063918 	3880 	0.062710
33.63 	0.060985 	3919 	0.060088
33.67 	0.058169 	3954 	0.056515
33.71 	0.060377 	3975 	0.059493
33.75 	0.056514 	3999 	0.055049
33.79 	0.061371 	4041 	0.060211
33.83 	0.059259 	4050 	0.057234
33.87 	0.067623 	4111 	0.065629
33.91 	0.057845 	4149 	0.057139
33.95 	0.061947 	4181 	0.061246
33.99 	0.067143 	4200 	0.065888
34.03 	0.062677 	4244 	0.061849
34.07 	0.052249 	4268 	0.050854
34.11 	0.061832 	4302 	0.061015
34.15 	0.061187 	4331 	0.060105
34.19 	0.059835 	4362 	0.059029
34.23 	0.054860 	4393 	0.053527
34.27 	0.066938 	4422 	0.065481
34.31 	0.052939 	4458 	0.052282
34.35 	0.057315 	4484 	0.056792
34.39 	0.055975 	4502 	0.055194
34.43 	0.065433 	4539 	0.064121
34.47 	0.060105 	4592 	0.058553
34.51 	0.058619 	4606 	0.057983
34.55 	0.059014 	4643 	0.057247
34.59 	0.053904 	4675 	0.053027
34.63 	0.061359 	4710 	0.060115
34.67 	0.064543 	4741 	0.063555
34.71 	0.053714 	4766 	0.052853
34.75 	0.055116 	4808 	0.054385
34.79 	0.059701 	4824 	0.058366
34.83 	0.062320 	4862 	0.061356
34.87 	0.056286 	4868 	0.055564
34.91 	0.059402 	4882 	0.058082
34.95 	0.058078 	4890 	0.057119
34.99 	0.062896 	4897 	0.061819
35.03 	0.051993 	4943 	0.050808
35.07 	0.054453 	4940 	0.053742
35.11 	0.063675 	4947 	0.062846
35.15 	0.057322 	4937 	0.056373
35.19 	0.063132 	4942 	0.062184
35.23 	0.058443 	4945 	0.057239
35.27 	0.058407 	4948 	0.058052
35.31 	0.055747 	4933 	0.054421
35.35 	0.060299 	4942 	0.059707
35.39 	0.055410 	4945 	0.054343
35.43 	0.061423 	4933 	0.060592
35.47 	0.059420 	4931 	0.058588
35.51 	0.060698 	4926 	0.059271
35.55 	0.059050 	4945 	0.057628
35.59 	0.057027 	4945 	0.055606
35.63 	0.061703 	4943 	0.061111
35.67 	0.057871 	4942 	0.056923
35.71 	0.058335 	4937 	0.056793
35.75 	0.063273 	4931 	0.061966
35.79 	0.055353 	4932 	0.054521
35.83 	0.061059 	4946 	0.059638
35.87 	0.058704 	4923 	0.057495
35.91 	0.064136 	4927 	0.062829
35.95 	0.060403 	4917 	0.059569
35.99 	0.057299 	4939 	0.056350
36.03 	0.055230 	4943 	0.054163
36.07 	0.057906 	4939 	0.056820
36.11 	0.058024 	4929 	0.056835
36.15 	0.059729 	4939 	0.059017
36.19 	0.063563 	4940 	0.062614
36.23 	0.067072 	4935 	0.065747
36.27 	0.062132 	4925 	0.060943
36.31 	0.063312 	4928 	0.062242
36.35 	0.063096 	4929 	0.062858
36.39 	0.054664 	4921 	0.053592
36.43 	0.058644 	4928 	0.058169
36.47 	0.058549 	4936 	0.057363
36.51 	0.055950 	4933 	0.055593
36.55 	0.059265 	4927 	0.058314
36.59 	0.059121 	4939 	0.058291
36.63 	0.058000 	4931 	0.056812
36.67 	0.061258 	4930 	0.060169
36.71 	0.052428 	4921 	0.051476
36.75 	0.058657 	4944 	0.057828
36.79 	0.057102 	4921 	0.056388
36.83 	0.059613 	4915 	0.058422
36.87 	0.061893 	4944 	0.061419
36.91 	0.061526 	4941 	0.060815
36.95 	0.055139 	4933 	0.054308
36.99 	0.060790 	4935 	0.059722
37.03 	0.059301 	4924 	0.058469
37.07 	0.050861 	4935 	0.050386
37.11 	0.051064 	4935 	0.050708
37.15 	0.062946 	4909 	0.062349
37.19 	0.055431 	4925 	0.054361
37.23 	0.054697 	4918 	0.053625
37.27 	0.056600 	4894 	0.055383
37.31 	0.060790 	4935 	0.059959
37.35 	0.054678 	4938 	0.053966
37.39 	0.050902 	4931 	0.050308
37.43 	0.059813 	4932 	0.058863
37.47 	0.056198 	4929 	0.054772
37.51 	0.047233 	4933 	0.046402
37.55 	0.049290 	4930 	0.048201
37.59 	0.060427 	4915 	0.059474
37.63 	0.049400 	4919 	0.048805
37.67 	0.053018 	4904 	0.052540
37.71 	0.057212 	4929 	0.056262
37.75 	0.053239 	4940 	0.053002
37.79 	0.045233 	4930 	0.044758
37.83 	0.048577 	4920 	0.048339
37.87 	0.053047 	4939 	0.052454
37.91 	0.059026 	4930 	0.058076
37.95 	0.055070 	4921 	0.054118
37.99 	0.051507 	4912 	0.050910
38.03 	0.057242 	4909 	0.056406
38.07 	0.058668 	4909 	0.057952
38.11 	0.053901 	4935 	0.052813
38.15 	0.054290 	4918 	0.053179
38.19 	0.051724 	4930 	0.051110
38.23 	0.058526 	4938 	0.057063
38.27 	0.054970 	4930 	0.054019
38.31 	0.054597 	4927 	0.054003
38.35 	0.058847 	4928 	0.057421
38.39 	0.054797 	4909 	0.054201
38.43 	0.060618 	4916 	0.059427
38.47 	0.064602 	4907 	0.063885
38.51 	0.060219 	4932 	0.059269
38.55 	0.065640 	4936 	0.064453
38.59 	0.056052 	4924 	0.054862
38.63 	0.066003 	4924 	0.064695
38.67 	0.053879 	4937 	0.053048
38.71 	0.065800 	4924 	0.064492
38.75 	0.060077 	4927 	0.059483
38.79 	0.056546 	4934 	0.055478
38.83 	0.050417 	4919 	0.050059
38.87 	0.050906 	4911 	0.050052
38.91 	0.050581 	4903 	0.049506
38.95 	0.046157 	4918 	0.045561
38.99 	0.049625 	4937 	0.048795
39.03 	0.051277 	4934 	0.050446
39.07 	0.048538 	4924 	0.047705
39.11 	0.047658 	4931 	0.047182
39.15 	0.052289 	4915 	0.051812
39.19 	0.051251 	4917 	0.050516
39.23 	0.049137 	4925 	0.048542
39.27 	0.052953 	4910 	0.052357
39.31 	0.045250 	4884 	0.044650
39.35 	0.045390 	4935 	0.044797
39.39 	0.048083 	4929 	0.046894
39.43 	0.045814 	4933 	0.045220
39.47 	0.046923 	4923 	0.046566
39.51 	0.051381 	4924 	0.050667
39.55 	0.047367 	4919 	0.046534
39.59 	0.047638 	4912 	0.047161
39.63 	0.049167 	4922 	0.048929
39.67 	0.050885 	4913 	0.050289
39.71 	0.047395 	4895 	0.046677
39.75 	0.046063 	4928 	0.045469
39.79 	0.050345 	4926 	0.049751
39.83 	0.048642 	4934 	0.047930
39.87 	0.051168 	4925 	0.050811
39.91 	0.049980 	4922 	0.049623
39.95 	0.045371 	4915 	0.044895
39.99 	0.047648 	4932 	0.046104
40.03 	0.048295 	4928 	0.048058
40.07 	0.053220 	4923 	0.052506
40.11 	0.051465 	4916 	0.051345
40.15 	0.051089 	4913 	0.049897
40.19 	0.045648 	4929 	0.045292
40.23 	0.044201 	4932 	0.043607
40.27 	0.051448 	4937 	0.050450
40.31 	0.043936 	4939 	0.043106
40.35 	0.049197 	4919 	0.048602
40.39 	0.040965 	4931 	0.040371
40.43 	0.045713 	4922 	0.045356
40.47 	0.049410 	4918 	0.048934
40.51 	0.043275 	4922 	0.043037
40.55 	0.042584 	4908 	0.041629
40.59 	0.046992 	4937 	0.046517
40.63 	0.051927 	4930 	0.050581
40.67 	0.051703 	4932 	0.050397
40.71 	0.048662 	4932 	0.047949
40.75 	0.041979 	4931 	0.041742
40.79 	0.051584 	4924 	0.051108
40.83 	0.047890 	4928 	0.047176
40.87 	0.048701 	4928 	0.048345
40.91 	0.048141 	4923 	0.046832
40.95 	0.046000 	4913 	0.045762
40.99 	0.046507 	4924 	0.046269
41.03 	0.046687 	4905 	0.045951
41.07 	0.045639 	4930 	0.045045
41.11 	0.048632 	4935 	0.048157
41.15 	0.044525 	4941 	0.044051
41.19 	0.046045 	4930 	0.045451
41.23 	0.042721 	4939 	0.042247
41.27 	0.044818 	4931 	0.044343
41.31 	0.047638 	4933 	0.047401
41.35 	0.040907 	4938 	0.040195
41.39 	0.042976 	4933 	0.041907
41.43 	0.044837 	4929 	0.044361
41.47 	0.043240 	4926 	0.043002
41.51 	0.045344 	4940 	0.044633
41.55 	0.048430 	4935 	0.048073
41.59 	0.048044 	4933 	0.047688
41.63 	0.045768 	4938 	0.045174
41.67 	0.039069 	4940 	0.038832
41.71 	0.042764 	4934 	0.042408
41.75 	0.044837 	4929 	0.043886
41.79 	0.047532 	4944 	0.047295
41.83 	0.045657 	4928 	0.044469
41.87 	0.045998 	4935 	0.045761
41.91 	0.046596 	4936 	0.045884
41.95 	0.041371 	4931 	0.041252
41.99 	0.039551 	4905 	0.039432
42.03 	0.044746 	4939 	0.044371
42.07 	0.044359 	4937 	0.044122
42.11 	0.044085 	4945 	0.043374
42.15 	0.041717 	4938 	0.041480
42.19 	0.044214 	4908 	0.043497
42.23 	0.047629 	4892 	0.047030
42.27 	0.043701 	4874 	0.042860
42.31 	0.045108 	4855 	0.044384
42.35 	0.041753 	4838 	0.041147
42.39 	0.047877 	4804 	0.047145
42.43 	0.041528 	4792 	0.041039
42.47 	0.043652 	4765 	0.043529
42.51 	0.041957 	4743 	0.041216
42.55 	0.043118 	4708 	0.042620
42.59 	0.042504 	4729 	0.042132
42.63 	0.041410 	4709 	0.041037
42.67 	0.039069 	4684 	0.038694
42.71 	0.042891 	4663 	0.042765
42.75 	0.041585 	4617 	0.041332
42.79 	0.044959 	4582 	0.044319
42.83 	0.042549 	4536 	0.042161
42.87 	0.035786 	4499 	0.035265
42.91 	0.046679 	4456 	0.046284
42.95 	0.038270 	4416 	0.037739
42.99 	0.042873 	4385 	0.042339
43.03 	0.044542 	4333 	0.043596
43.07 	0.045391 	4296 	0.044982
43.11 	0.042068 	4255 	0.041380
43.15 	0.041845 	4206 	0.041566
43.19 	0.047449 	4194 	0.046448
43.23 	0.042610 	4154 	0.042327
43.27 	0.037515 	4105 	0.036659
43.31 	0.038735 	4079 	0.038304
43.35 	0.038442 	4032 	0.038297
43.39 	0.038231 	4002 	0.037499
43.43 	0.044697 	3960 	0.044105
43.47 	0.043101 	3921 	0.042504
43.51 	0.042301 	3877 	0.042301
43.55 	0.034750 	2964 	0.034750
43.59 	0.045246 	1746 	0.045246
43.63 	0.040959 	1001 	0.040959
43.67 	0.049801 	502 	0.049801
43.71 	0.029289 	239 	0.026838
43.75 	0.000000 	16 	0.000000