File: Example_Data/25SC_s1_0021.001.dat
#F C:\frames\spec\25SC_s1_0021.001
#C title =s:21 frm:1 25SC_s1
#C wavelength =0.15406

#S 1  fr_average C:\frames\spec\25SC_s1_0021.001 C:\win32app\speccom\mask.axs chi 0 180 0 360 0.02
#C 2 theta =0.000000 to 180 deg
#C   q   =0.000000 to 81.568 nm^-1
#C  chi  =0.000000 to 360 deg
#C collumns:
#C  1 position (2theta or chi in degrees)
#C  2 average intensity (sum of all counts in the region divided with number of pixels)
#C  3 Number of pixels in region)
#C  4 error (sum of sqrt(intensity) for all pixels divided by number)
#N 4
#L TTh  Int  N_pix  Err
32.99 	0.081967 	61 	0.081967
33.03 	0.065421 	1391 	0.063315
33.07 	0.052683 	2050 	0.051254
33.11 	0.051958 	2579 	0.051277
33.15 	0.059020 	2999 	0.058238
33.19 	0.055655 	3342 	0.054604
33.23 	0.056202 	3523 	0.054179
33.27 	0.060882 	3630 	0.059106
33.31 	0.060929 	3660 	0.059489
33.35 	0.061992 	3694 	0.060882
33.39 	0.059802 	3729 	0.059173
33.43 	0.068333 	3761 	0.067710
33.47 	0.060821 	3798 	0.060050
33.51 	0.060813 	3815 	0.059277
33.55 	0.053864 	3843 	0.053254
33.59 	0.063402 	3880 	0.062798
33.63 	0.062006 	3919 	0.061258
33.67 	0.061457 	3954 	0.060420
33.71 	0.060126 	3975 	0.058652
33.75 	0.050263 	3999 	0.049823
33.79 	0.060381 	4041 	0.059076
33.83 	0.058025 	4050 	0.057157
33.87 	0.064218 	4111 	0.062793
33.91 	0.057845 	4149 	0.056857
33.95 	0.059316 	4181 	0.058335
33.99 	0.061190 	4200 	0.059633
34.03 	0.053959 	4244 	0.053268
34.07 	0.064667 	4268 	0.063569
34.11 	0.056253 	4302 	0.055027
34.15 	0.060494 	4331 	0.059547
34.19 	0.061210 	4362 	0.060539
34.23 	0.059640 	4393 	0.058018
34.27 	0.059701 	4422 	0.058355
34.31 	0.056752 	4458 	0.055964
34.35 	0.062444 	4484 	0.061138
34.39 	0.047979 	4502 	0.047198
34.43 	0.056841 	4539 	0.055937
34.47 	0.052700 	4592 	0.051425
34.51 	0.057751 	4606 	0.056077
34.55 	0.060737 	4643 	0.059475
34.59 	0.054118 	4675 	0.052593
34.63 	0.054565 	4710 	0.053694
34.67 	0.053575 	4741 	0.052957
34.71 	0.053714 	4766 	0.053099
34.75 	0.052829 	4808 	0.052219
34.79 	0.056385 	4824 	0.055413
34.83 	0.051625 	4862 	0.050762
34.87 	0.057518 	4868 	0.056796
34.91 	0.056329 	4882 	0.055249
34.95 	0.051329 	4890 	0.050850
34.99 	0.056974 	4897 	0.055858
35.03 	0.055837 	4943 	0.054414
35.07 	0.060121 	4940 	0.058580
35.11 	0.057813 	4947 	0.056866
35.15 	0.060361 	4937 	0.059411
35.19 	0.061716 	4942 	0.060175
35.23 	0.062690 	4945 	0.061268
35.27 	0.056791 	4948 	0.056317
35.31 	0.062234 	4933 	0.061165
35.35 	0.062323 	4942 	0.061256
35.39 	0.055612 	4945 	0.055019
35.43 	0.053314 	4933 	0.052008
35.47 	0.061448 	4931 	0.060260
35.51 	0.060901 	4926 	0.059474
35.55 	0.053589 	4945 	0.052879
35.59 	0.063296 	4945 	0.062092
35.63 	0.057860 	4943 	0.056556
35.67 	0.059288 	4942 	0.057984
35.71 	0.059550 	4937 	0.058601
35.75 	0.058406 	4931 	0.057931
35.79 	0.057786 	4932 	0.057073
35.83 	0.051355 	4946 	0.050762
35.87 	0.056267 	4923 	0.054958
35.91 	0.055409 	4927 	0.054577
35.95 	0.058979 	4917 	0.058622
35.99 	0.052642 	4939 	0.052168
36.03 	0.056039 	4943 	0.054498
36.07 	0.064588 	4939 	0.063046
36.11 	0.057212 	4929 	0.056618
36.15 	0.057097 	4939 	0.055911
36.19 	0.059919 	4940 	0.058595
36.23 	0.063222 	4935 	0.061560
36.27 	0.057462 	4925 	0.056729
36.31 	0.056818 	4928 	0.055392
36.35 	0.059444 	4929 	0.058256
36.39 	0.060150 	4921 	0.058484
36.43 	0.052354 	4928 	0.051165
36.47 	0.058752 	4936 	0.057803
36.51 	0.052301 	4933 	0.051826
36.55 	0.062716 	4927 	0.061883
36.59 	0.053047 	4939 	0.052336
36.63 	0.054350 	4931 	0.053004
36.67 	0.059026 	4930 	0.058432
36.71 	0.060557 	4921 	0.059485
36.75 	0.061893 	4944 	0.060234
36.79 	0.062182 	4921 	0.061330
36.83 	0.053306 	4915 	0.052591
36.87 	0.056028 	4944 	0.055435
36.91 	0.051609 	4941 	0.051490
36.95 	0.056963 	4933 	0.055875
36.99 	0.049037 	4935 	0.047969
37.03 	0.056661 	4924 	0.055710
37.07 	0.056940 	4935 	0.055872
37.11 	0.054103 	4935 	0.053272
37.15 	0.055408 	4909 	0.054454
37.19 	0.055228 	4925 	0.054753
37.23 	0.058764 	4918 	0.058168
37.27 	0.053535 	4894 	0.053176
37.31 	0.061803 	4935 	0.060854
37.35 	0.063589 	4938 	0.061908
37.39 	0.055567 	4931 	0.054854
37.43 	0.060827 	4932 	0.060352
37.47 	0.057821 	4929 	0.056633
37.51 	0.059193 	4933 	0.058481
37.55 	0.059026 	4930 	0.057838
37.59 	0.059613 	4915 	0.058541
37.63 	0.053263 	4919 	0.052548
37.67 	0.054445 	4904 	0.053968
37.71 	0.049706 	4929 	0.049349
37.75 	0.058300 	4940 	0.057825
37.79 	0.048276 	4930 	0.047801
37.83 	0.056707 	4920 	0.055874
37.87 	0.053857 	4939 	0.052908
37.91 	0.052130 	4930 	0.050942
37.95 	0.051616 	4921 	0.051258
37.99 	0.060261 	4912 	0.059187
38.03 	0.055001 	4909 	0.054146
38.07 	0.053779 	4909 	0.052585
38.11 	0.054914 	4935 	0.053727
38.15 	0.058764 	4918 	0.057811
38.19 	0.053955 	4930 	0.053480
38.23 	0.053665 	4938 	0.053072
38.27 	0.060852 	4930 	0.059783
38.31 	0.062513 	4927 	0.061086
38.35 	0.057427 	4928 	0.056357
38.39 	0.062742 	4909 	0.061768
38.43 	0.066314 	4916 	0.064765
38.47 	0.066639 	4907 	0.065684
38.51 	0.071776 	4932 	0.070588
38.55 	0.072326 	4936 	0.071020
38.59 	0.072908 	4924 	0.072194
38.63 	0.079204 	4924 	0.077776
38.67 	0.074539 	4937 	0.072048
38.71 	0.070877 	4924 	0.069549
38.75 	0.065151 	4927 	0.063843
38.79 	0.066883 	4934 	0.065814
38.83 	0.059972 	4919 	0.059495
38.87 	0.060273 	4911 	0.058961
38.91 	0.058536 	4903 	0.057102
38.95 	0.058967 	4918 	0.057895
38.99 	0.055904 	4937 	0.054955
39.03 	0.046615 	4934 	0.046140
39.07 	0.053818 	4924 	0.053085
39.11 	0.047049 	4931 	0.047049
39.15 	0.047406 	4915 	0.046452
39.19 	0.050031 	4917 	0.049673
39.23 	0.047107 	4925 	0.046631
39.27 	0.048473 	4910 	0.047399
39.31 	0.048321 	4884 	0.048081
39.35 	0.048632 	4935 	0.047801
39.39 	0.039359 	4929 	0.039240
39.43 	0.044395 	4933 	0.044157
39.47 	0.046313 	4923 	0.045342
39.51 	0.041430 	4924 	0.040954
39.55 	0.044115 	4919 	0.043757
39.59 	0.044788 	4912 	0.044192
39.63 	0.048761 	4922 	0.048285
39.67 	0.044169 	4913 	0.044049
39.71 	0.048825 	4895 	0.047629
39.75 	0.045049 	4928 	0.044454
39.79 	0.047300 	4926 	0.046705
39.83 	0.049858 	4934 	0.049027
39.87 	0.042234 	4925 	0.041639
39.91 	0.045307 	4922 	0.044355
39.95 	0.042319 	4915 	0.041724
39.99 	0.043390 	4932 	0.042915
40.03 	0.044237 	4928 	0.043999
40.07 	0.049157 	4923 	0.048324
40.11 	0.049024 	4916 	0.048904
40.15 	0.044372 	4913 	0.043895
40.19 	0.040576 	4929 	0.039982
40.23 	0.042782 	4932 	0.041832
40.27 	0.044764 	4937 	0.044408
40.31 	0.041101 	4939 	0.040864
40.35 	0.042488 	4919 	0.042131
40.39 	0.042182 	4931 	0.041826
40.43 	0.041447 	4922 	0.040851
40.47 	0.044124 	4918 	0.043766
40.51 	0.038602 	4922 	0.038245
40.55 	0.041157 	4908 	0.040680
40.59 	0.039498 	4937 	0.039023
40.63 	0.048276 	4930 	0.047325
40.67 	0.044201 	4932 	0.043607
40.71 	0.041971 	4932 	0.041496
40.75 	0.040763 	4931 	0.040406
40.79 	0.043258 	4924 	0.043139
40.83 	0.038352 	4928 	0.038115
40.87 	0.040584 	4928 	0.040109
40.91 	0.044688 	4923 	0.044093
40.95 	0.044372 	4913 	0.043637
40.99 	0.038587 	4924 	0.038111
41.03 	0.035270 	4905 	0.035151
41.07 	0.046450 	4930 	0.045619
41.11 	0.041135 	4935 	0.040185
41.15 	0.041692 	4941 	0.041099
41.19 	0.043813 	4930 	0.043338
41.23 	0.033813 	4939 	0.033575
41.27 	0.040965 	4931 	0.040728
41.31 	0.039124 	4933 	0.038649
41.35 	0.034832 	4938 	0.034595
41.39 	0.041760 	4933 	0.041522
41.43 	0.040779 	4929 	0.039928
41.47 	0.036744 	4926 	0.036387
41.51 	0.042510 	4940 	0.042154
41.55 	0.041540 	4935 	0.041303
41.59 	0.040949 	4933 	0.040474
41.63 	0.039490 	4938 	0.038659
41.67 	0.041903 	4940 	0.041191
41.71 	0.040130 	4934 	0.039892
41.75 	0.041591 	4929 	0.041115
41.79 	0.040858 	4944 	0.040265
41.83 	0.040990 	4928 	0.040753
41.87 	0.037487 	4935 	0.037131
41.91 	0.041937 	4936 	0.041818
41.95 	0.038735 	4931 	0.038497
41.99 	0.038940 	4905 	0.038223
42.03 	0.041101 	4939 	0.040390
42.07 	0.041321 	4937 	0.041202
42.11 	0.040849 	4945 	0.040494
42.15 	0.039085 	4938 	0.038116
42.19 	0.037897 	4908 	0.037659
42.23 	0.031276 	4892 	0.030797
42.27 	0.043701 	4874 	0.043221
42.31 	0.040371 	4855 	0.039888
42.35 	0.041133 	4838 	0.040769
42.39 	0.042256 	4804 	0.041891
42.43 	0.041528 	4792 	0.041161
42.47 	0.038195 	4765 	0.037580
42.51 	0.039005 	4743 	0.038758
42.55 	0.041844 	4708 	0.041201
42.59 	0.036794 	4729 	0.036547
42.63 	0.039924 	4709 	0.039675
42.67 	0.040991 	4684 	0.040740
42.71 	0.037315 	4663 	0.037315
42.75 	0.034871 	4617 	0.034617
42.79 	0.042558 	4582 	0.042174
42.83 	0.041005 	4536 	0.040489
42.87 	0.036453 	4499 	0.035932
42.91 	0.038824 	4456 	0.038430
42.95 	0.037138 	4416 	0.036740
42.99 	0.035348 	4385 	0.035214
43.03 	0.042465 	4333 	0.041789
43.07 	0.043296 	4296 	0.042456
43.11 	0.035488 	4255 	0.034799
43.15 	0.037090 	4206 	0.036811
43.19 	0.032904 	4194 	0.032485
43.23 	0.037073 	4154 	0.036791
43.27 	0.039951 	4105 	0.039214
43.31 	0.039961 	4079 	0.039961
43.35 	0.038690 	4032 	0.038545
43.39 	0.038981 	4002 	0.038688
43.43 	0.037374 	3960 	0.036634
43.47 	0.035195 	3921 	0.035195
43.51 	0.035595 	3877 	0.035141
43.55 	0.037787 	2964 	0.037589
43.59 	0.038946 	1746 	0.038275
43.63 	0.029970 	1001 	0.029970
43.67 	0.027888 	502 	0.027888
43.71 	0.041841 	239 	0.041841
43.75 	0.000000 	16 	0.000000