File: Example_Data/25SC_s1_0018.000.dat
#F C:\frames\spec\25SC_s1_0018.000
#C title =s:18 frm:0 25SC_s1
#C wavelength =0.15406

#S 1  fr_average C:\frames\spec\25SC_s1_0018.000 C:\win32app\speccom\mask.axs chi 0 180 0 360 0.02
#C 2 theta =0.000000 to 180 deg
#C   q   =0.000000 to 81.568 nm^-1
#C  chi  =0.000000 to 360 deg
#C collumns:
#C  1 position (2theta or chi in degrees)
#C  2 average intensity (sum of all counts in the region divided with number of pixels)
#C  3 Number of pixels in region)
#C  4 error (sum of sqrt(intensity) for all pixels divided by number)
#N 4
#L TTh  Int  N_pix  Err
32.99 	0.032787 	61 	0.032787
33.03 	0.058231 	1391 	0.057389
33.07 	0.061951 	2050 	0.060808
33.11 	0.059713 	2579 	0.058350
33.15 	0.067022 	2999 	0.066046
33.19 	0.060144 	3342 	0.059267
33.23 	0.062447 	3523 	0.061283
33.27 	0.063085 	3630 	0.061633
33.31 	0.060383 	3660 	0.059422
33.35 	0.062534 	3694 	0.061741
33.39 	0.056852 	3729 	0.055909
33.43 	0.064610 	3761 	0.063832
33.47 	0.055029 	3798 	0.054104
33.51 	0.062385 	3815 	0.061771
33.55 	0.062711 	3843 	0.061644
33.59 	0.062887 	3880 	0.061679
33.63 	0.063792 	3919 	0.062447
33.67 	0.060445 	3954 	0.059236
33.71 	0.061132 	3975 	0.059953
33.75 	0.057764 	3999 	0.056886
33.79 	0.064093 	4041 	0.062354
33.83 	0.059753 	4050 	0.058741
33.87 	0.064948 	4111 	0.063499
33.91 	0.052784 	4149 	0.052360
33.95 	0.057163 	4181 	0.056183
33.99 	0.062381 	4200 	0.060824
34.03 	0.056550 	4244 	0.055860
34.07 	0.062090 	4268 	0.060969
34.11 	0.061599 	4302 	0.060646
34.15 	0.063727 	4331 	0.062780
34.19 	0.062815 	4362 	0.061875
34.23 	0.061689 	4393 	0.061156
34.27 	0.057666 	4422 	0.057004
34.31 	0.060341 	4458 	0.059290
34.35 	0.060214 	4484 	0.058777
34.39 	0.060195 	4502 	0.059024
34.43 	0.063009 	4539 	0.061827
34.47 	0.058362 	4592 	0.057469
34.51 	0.057534 	4606 	0.056643
34.55 	0.055568 	4643 	0.054811
34.59 	0.054759 	4675 	0.053757
34.63 	0.060510 	4710 	0.059017
34.67 	0.058848 	4741 	0.057613
34.71 	0.056861 	4766 	0.056492
34.75 	0.051789 	4808 	0.050570
34.79 	0.057214 	4824 	0.056242
34.83 	0.056972 	4862 	0.056250
34.87 	0.054643 	4868 	0.053800
34.91 	0.054896 	4882 	0.054056
34.95 	0.055828 	4890 	0.054511
34.99 	0.057995 	4897 	0.056559
35.03 	0.055837 	4943 	0.055125
35.07 	0.057490 	4940 	0.056778
35.11 	0.064281 	4947 	0.063216
35.15 	0.063399 	4937 	0.062331
35.19 	0.059895 	4942 	0.058472
35.23 	0.060870 	4945 	0.060040
35.27 	0.055376 	4948 	0.054429
35.31 	0.063045 	4933 	0.062095
35.35 	0.057062 	4942 	0.056232
35.39 	0.056016 	4945 	0.055049
35.43 	0.054936 	4933 	0.054105
35.47 	0.051511 	4931 	0.050560
35.51 	0.059886 	4926 	0.059530
35.55 	0.058038 	4945 	0.056854
35.59 	0.059050 	4945 	0.058813
35.63 	0.061299 	4943 	0.060232
35.67 	0.053420 	4942 	0.052827
35.71 	0.057322 	4937 	0.056729
35.75 	0.058000 	4931 	0.057525
35.79 	0.055556 	4932 	0.054705
35.83 	0.055803 	4946 	0.054737
35.87 	0.053829 	4923 	0.052976
35.91 	0.060280 	4927 	0.059210
35.95 	0.058776 	4917 	0.057703
35.99 	0.059526 	4939 	0.058696
36.03 	0.058264 	4943 	0.057316
36.07 	0.058311 	4939 	0.058074
36.11 	0.058835 	4929 	0.057647
36.15 	0.062766 	4939 	0.061442
36.19 	0.049798 	4940 	0.049442
36.23 	0.065248 	4935 	0.064180
36.27 	0.057868 	4925 	0.056421
36.31 	0.065138 	4928 	0.063593
36.35 	0.061067 	4929 	0.059265
36.39 	0.061370 	4921 	0.060417
36.43 	0.059050 	4928 	0.057981
36.47 	0.057536 	4936 	0.056330
36.51 	0.062031 	4933 	0.060112
36.55 	0.062107 	4927 	0.060779
36.59 	0.058514 	4939 	0.057328
36.63 	0.058609 	4931 	0.057540
36.67 	0.066329 	4930 	0.065477
36.71 	0.057915 	4921 	0.056467
36.75 	0.058657 	4944 	0.058302
36.79 	0.057509 	4921 	0.057032
36.83 	0.069379 	4915 	0.067572
36.87 	0.062298 	4944 	0.061942
36.91 	0.062943 	4941 	0.061757
36.95 	0.060409 	4933 	0.058985
36.99 	0.056130 	4935 	0.055536
37.03 	0.061942 	4924 	0.061109
37.07 	0.056738 	4935 	0.055907
37.11 	0.053698 	4935 	0.052986
37.15 	0.063353 	4909 	0.062140
37.19 	0.058477 	4925 	0.057288
37.23 	0.061204 	4918 	0.059894
37.27 	0.057622 	4894 	0.056425
37.31 	0.062614 	4935 	0.061546
37.35 	0.056096 	4938 	0.055502
37.39 	0.058609 	4931 	0.057658
37.43 	0.063058 	4932 	0.061989
37.47 	0.055386 	4929 	0.054555
37.51 	0.065275 	4933 	0.064562
37.55 	0.050913 	4930 	0.049725
37.59 	0.056765 	4915 	0.055692
37.63 	0.053873 	4919 	0.053039
37.67 	0.060359 	4904 	0.059523
37.71 	0.058430 	4929 	0.057241
37.75 	0.062348 	4940 	0.061755
37.79 	0.056998 	4930 	0.056047
37.83 	0.052236 	4920 	0.051521
37.87 	0.052845 	4939 	0.052252
37.91 	0.062475 	4930 	0.061999
37.95 	0.051412 	4921 	0.050936
37.99 	0.054764 	4912 	0.053214
38.03 	0.056427 	4909 	0.056188
38.07 	0.059686 	4909 	0.058612
38.11 	0.055117 	4935 	0.054167
38.15 	0.050834 	4918 	0.050476
38.19 	0.054564 	4930 	0.054089
38.23 	0.055286 	4938 	0.053981
38.27 	0.052535 	4930 	0.051466
38.31 	0.064542 	4927 	0.064067
38.35 	0.064326 	4928 	0.063256
38.39 	0.067223 	4909 	0.065295
38.43 	0.065907 	4916 	0.064239
38.47 	0.067455 	4907 	0.066619
38.51 	0.080292 	4932 	0.078867
38.55 	0.085089 	4936 	0.083190
38.59 	0.069862 	4924 	0.068077
38.63 	0.074127 	4924 	0.072223
38.67 	0.074337 	4937 	0.073031
38.71 	0.084687 	4924 	0.082546
38.75 	0.077532 	4927 	0.075749
38.79 	0.080057 	4934 	0.077920
38.83 	0.075015 	4919 	0.073348
38.87 	0.064956 	4911 	0.063883
38.91 	0.075464 	4903 	0.073791
38.95 	0.062424 	4918 	0.061709
38.99 	0.056107 	4937 	0.054920
39.03 	0.058370 	4934 	0.057658
39.07 	0.056255 	4924 	0.055898
39.11 	0.048469 	4931 	0.047756
39.15 	0.057782 	4915 	0.056690
39.19 	0.052268 	4917 	0.051791
39.23 	0.055025 	4925 	0.054669
39.27 	0.053971 	4910 	0.052898
39.31 	0.050164 	4884 	0.049684
39.35 	0.049645 	4935 	0.048814
39.39 	0.049503 	4929 	0.048909
39.43 	0.049868 	4933 	0.049393
39.47 	0.046923 	4923 	0.046566
39.51 	0.045898 	4924 	0.045422
39.55 	0.043911 	4919 	0.042959
39.59 	0.043770 	4912 	0.043293
39.63 	0.044900 	4922 	0.044543
39.67 	0.048036 	4913 	0.047082
39.71 	0.047191 	4895 	0.046094
39.75 	0.047484 	4928 	0.047008
39.79 	0.050751 	4926 	0.050632
39.83 	0.044386 	4934 	0.043792
39.87 	0.047716 	4925 	0.047002
39.91 	0.049573 	4922 	0.049097
39.95 	0.046796 	4915 	0.046319
39.99 	0.045215 	4932 	0.044859
40.03 	0.050122 	4928 	0.049409
40.07 	0.045907 	4923 	0.045193
40.11 	0.043328 	4916 	0.042713
40.15 	0.046815 	4913 	0.045841
40.19 	0.047677 	4929 	0.046845
40.23 	0.044404 	4932 	0.043810
40.27 	0.050030 	4937 	0.049318
40.31 	0.044746 	4939 	0.044271
40.35 	0.042488 	4919 	0.042012
40.39 	0.049888 	4931 	0.049057
40.43 	0.045916 	4922 	0.045202
40.47 	0.042497 	4918 	0.042021
40.51 	0.046119 	4922 	0.045643
40.55 	0.047474 	4908 	0.046638
40.59 	0.039295 	4937 	0.039058
40.63 	0.040162 	4930 	0.040162
40.67 	0.039335 	4932 	0.038622
40.71 	0.043796 	4932 	0.043321
40.75 	0.043805 	4931 	0.042973
40.79 	0.046913 	4924 	0.046080
40.83 	0.044440 	4928 	0.044083
40.87 	0.039976 	4928 	0.039619
40.91 	0.041235 	4923 	0.040997
40.95 	0.042337 	4913 	0.041621
40.99 	0.042445 	4924 	0.041850
41.03 	0.041794 	4905 	0.041555
41.07 	0.039959 	4930 	0.039484
41.11 	0.044377 	4935 	0.043546
41.15 	0.043513 	4941 	0.043039
41.19 	0.039554 	4930 	0.039316
41.23 	0.038469 	4939 	0.037876
41.27 	0.043196 	4931 	0.042840
41.31 	0.035475 	4933 	0.034763
41.35 	0.043945 	4938 	0.043708
41.39 	0.038313 	4933 	0.038195
41.43 	0.043417 	4929 	0.042822
41.47 	0.048315 	4926 	0.047958
41.51 	0.047166 	4940 	0.046929
41.55 	0.039108 	4935 	0.038634
41.59 	0.037503 	4933 	0.037146
41.63 	0.042122 	4938 	0.041648
41.67 	0.039069 	4940 	0.038832
41.71 	0.043170 	4934 	0.042695
41.75 	0.040982 	4929 	0.040269
41.79 	0.042273 	4944 	0.042155
41.83 	0.042817 	4928 	0.042460
41.87 	0.045998 	4935 	0.045642
41.91 	0.039708 	4936 	0.039471
41.95 	0.039546 	4931 	0.039546
41.99 	0.036901 	4905 	0.036543
42.03 	0.042519 	4939 	0.041807
42.07 	0.033624 	4937 	0.033386
42.11 	0.037816 	4945 	0.037579
42.15 	0.045160 	4938 	0.044448
42.19 	0.045436 	4908 	0.044839
42.23 	0.039452 	4892 	0.038494
42.27 	0.041444 	4874 	0.040603
42.31 	0.040577 	4855 	0.040215
42.35 	0.042580 	4838 	0.042095
42.39 	0.039759 	4804 	0.039271
42.43 	0.046536 	4792 	0.046169
42.47 	0.036726 	4765 	0.036234
42.51 	0.039848 	4743 	0.039354
42.55 	0.035472 	4708 	0.035098
42.59 	0.042715 	4729 	0.042220
42.63 	0.041198 	4709 	0.040949
42.67 	0.039923 	4684 	0.039548
42.71 	0.037744 	4663 	0.037744
42.75 	0.041369 	4617 	0.040861
42.79 	0.041903 	4582 	0.040987
42.83 	0.039021 	4536 	0.038246
42.87 	0.044677 	4499 	0.044026
42.91 	0.042190 	4456 	0.041796
42.95 	0.036685 	4416 	0.036154
42.99 	0.039681 	4385 	0.039280
43.03 	0.040849 	4333 	0.040173
43.07 	0.039339 	4296 	0.039066
43.11 	0.036898 	4255 	0.036485
43.15 	0.035188 	4206 	0.034909
43.19 	0.040534 	4194 	0.039836
43.23 	0.045258 	4154 	0.044694
43.27 	0.046529 	4105 	0.045672
43.31 	0.041677 	4079 	0.041102
43.35 	0.035714 	4032 	0.035278
43.39 	0.038481 	4002 	0.038042
43.43 	0.043182 	3960 	0.042738
43.47 	0.039786 	3921 	0.039188
43.51 	0.042817 	3877 	0.042666
43.55 	0.040823 	2964 	0.040823
43.59 	0.046392 	1746 	0.045385
43.63 	0.037962 	1001 	0.037962
43.67 	0.037849 	502 	0.037849
43.71 	0.054393 	239 	0.054393
43.75 	0.000000 	16 	0.000000