File: Example_Data/25SC_s1_0023.002.dat
#F C:\frames\spec\25SC_s1_0023.002
#C title =s:23 frm:2 25SC_s1
#C wavelength =0.15406

#S 1  fr_average C:\frames\spec\25SC_s1_0023.002 C:\win32app\speccom\mask.axs chi 0 180 0 360 0.02
#C 2 theta =0.000000 to 180 deg
#C   q   =0.000000 to 81.568 nm^-1
#C  chi  =0.000000 to 360 deg
#C collumns:
#C  1 position (2theta or chi in degrees)
#C  2 average intensity (sum of all counts in the region divided with number of pixels)
#C  3 Number of pixels in region)
#C  4 error (sum of sqrt(intensity) for all pixels divided by number)
#N 4
#L TTh  Int  N_pix  Err
32.99 	0.049180 	61 	0.049180
33.03 	0.061107 	1391 	0.059844
33.07 	0.065366 	2050 	0.063080
33.11 	0.060876 	2579 	0.059513
33.15 	0.055685 	2999 	0.054904
33.19 	0.062537 	3342 	0.060785
33.23 	0.062447 	3523 	0.062114
33.27 	0.060331 	3630 	0.059040
33.31 	0.068852 	3660 	0.067572
33.35 	0.060910 	3694 	0.060117
33.39 	0.059265 	3729 	0.057983
33.43 	0.064079 	3761 	0.062677
33.47 	0.048183 	3798 	0.047875
33.51 	0.055832 	3815 	0.055525
33.55 	0.057767 	3843 	0.056853
33.59 	0.055412 	3880 	0.054205
33.63 	0.066343 	3919 	0.064101
33.67 	0.062468 	3954 	0.061135
33.71 	0.059623 	3975 	0.058002
33.75 	0.064516 	3999 	0.062734
33.79 	0.061371 	4041 	0.060066
33.83 	0.049877 	4050 	0.049153
33.87 	0.056677 	4111 	0.055965
33.91 	0.064594 	4149 	0.063888
33.95 	0.058838 	4181 	0.057717
33.99 	0.059762 	4200 	0.058507
34.03 	0.061027 	4244 	0.060613
34.07 	0.050375 	4268 	0.049414
34.11 	0.061832 	4302 	0.060584
34.15 	0.057031 	4331 	0.055408
34.19 	0.048372 	4362 	0.047835
34.23 	0.059640 	4393 	0.058840
34.27 	0.056988 	4422 	0.056060
34.31 	0.057873 	4458 	0.057085
34.35 	0.055308 	4484 	0.054001
34.39 	0.062861 	4502 	0.061169
34.43 	0.059264 	4539 	0.058361
34.47 	0.061847 	4592 	0.060422
34.51 	0.061659 	4606 	0.060768
34.55 	0.055352 	4643 	0.054469
34.59 	0.065668 	4675 	0.064040
34.63 	0.059448 	4710 	0.057458
34.67 	0.059481 	4741 	0.058740
34.71 	0.050986 	4766 	0.050740
34.75 	0.061148 	4808 	0.059544
34.79 	0.054519 	4824 	0.053548
34.83 	0.055738 	4862 	0.054775
34.87 	0.057108 	4868 	0.055764
34.91 	0.054896 	4882 	0.053456
34.95 	0.052965 	4890 	0.051528
34.99 	0.057586 	4897 	0.057347
35.03 	0.055837 	4943 	0.054651
35.07 	0.059717 	4940 	0.058887
35.11 	0.051951 	4947 	0.051339
35.15 	0.055499 	4937 	0.054431
35.19 	0.055848 	4942 	0.055374
35.23 	0.051769 	4945 	0.050703
35.27 	0.060024 	4948 	0.059077
35.31 	0.055747 	4933 	0.055035
35.35 	0.062728 	4942 	0.061424
35.39 	0.053792 	4945 	0.053417
35.43 	0.054733 	4933 	0.053783
35.47 	0.059217 	4931 	0.057416
35.51 	0.056638 	4926 	0.055568
35.55 	0.059656 	4945 	0.058590
35.59 	0.055612 	4945 	0.055000
35.63 	0.053004 	4943 	0.051800
35.67 	0.062121 	4942 	0.060580
35.71 	0.053474 	4937 	0.052169
35.75 	0.060028 	4931 	0.058840
35.79 	0.055961 	4932 	0.055605
35.83 	0.055196 	4946 	0.054249
35.87 	0.062970 	4923 	0.061760
35.91 	0.059468 	4927 	0.058636
35.95 	0.061623 	4917 	0.060432
35.99 	0.055679 	4939 	0.054730
36.03 	0.056646 	4943 	0.055816
36.07 	0.054869 	4939 	0.054158
36.11 	0.054169 	4929 	0.053932
36.15 	0.059324 	4939 	0.058256
36.19 	0.061336 	4940 	0.060150
36.23 	0.056535 	4935 	0.055704
36.27 	0.057665 	4925 	0.056694
36.31 	0.055195 	4928 	0.054838
36.35 	0.063299 	4929 	0.062329
36.39 	0.057712 	4921 	0.055688
36.43 	0.057021 	4928 	0.056407
36.47 	0.050851 	4936 	0.050139
36.51 	0.054936 	4933 	0.054105
36.55 	0.052973 	4927 	0.052221
36.59 	0.055274 	4939 	0.054800
36.63 	0.057595 	4931 	0.056882
36.67 	0.063895 	4930 	0.062112
36.71 	0.048567 	4921 	0.047853
36.75 	0.060680 	4944 	0.060087
36.79 	0.058321 	4921 	0.057012
36.83 	0.054527 	4915 	0.053693
36.87 	0.056028 	4944 	0.054606
36.91 	0.053228 	4941 	0.052635
36.95 	0.059801 	4933 	0.058495
36.99 	0.054711 	4935 	0.053643
37.03 	0.055240 	4924 	0.054526
37.07 	0.052077 	4935 	0.051246
37.11 	0.054103 	4935 	0.053391
37.15 	0.055001 	4909 	0.054166
37.19 	0.044467 	4925 	0.043872
37.23 	0.058357 	4918 	0.057404
37.27 	0.057213 	4894 	0.056495
37.31 	0.049848 	4935 	0.049116
37.35 	0.058121 	4938 	0.057409
37.39 	0.058812 	4931 	0.057980
37.43 	0.055150 	4932 	0.054912
37.47 	0.058633 	4929 	0.057444
37.51 	0.054328 	4933 	0.053141
37.55 	0.052738 	4930 	0.052144
37.59 	0.049034 	4915 	0.048676
37.63 	0.053873 	4919 	0.052444
37.67 	0.046085 	4904 	0.045965
37.71 	0.051329 	4929 	0.050616
37.75 	0.057692 	4940 	0.056862
37.79 	0.055172 	4930 	0.054697
37.83 	0.058537 	4920 	0.056969
37.87 	0.051832 	4939 	0.051595
37.91 	0.047667 	4930 	0.046717
37.95 	0.051412 	4921 	0.050698
37.99 	0.053542 	4912 	0.052350
38.03 	0.059075 	4909 	0.058240
38.07 	0.046445 	4909 	0.045968
38.11 	0.050051 	4935 	0.049457
38.15 	0.056120 	4918 	0.054910
38.19 	0.055578 	4930 	0.054390
38.23 	0.057311 	4938 	0.055887
38.27 	0.054564 	4930 	0.053138
38.31 	0.059265 	4927 	0.058433
38.35 	0.057833 	4928 	0.056763
38.39 	0.056020 	4909 	0.054349
38.43 	0.057974 	4916 	0.057021
38.47 	0.061137 	4907 	0.060540
38.51 	0.062044 	4932 	0.060737
38.55 	0.063614 	4936 	0.062784
38.59 	0.058692 	4924 	0.058216
38.63 	0.065191 	4924 	0.063287
38.67 	0.064209 	4937 	0.062785
38.71 	0.053818 	4924 	0.053104
38.75 	0.056221 	4927 	0.055032
38.79 	0.059789 	4934 	0.058919
38.83 	0.056922 	4919 	0.056208
38.87 	0.053757 	4911 	0.052167
38.91 	0.048134 	4903 	0.047656
38.95 	0.046564 	4918 	0.046206
38.99 	0.042536 	4937 	0.042536
39.03 	0.044183 	4934 	0.043570
39.07 	0.046101 	4924 	0.045506
39.11 	0.048874 	4931 	0.048043
39.15 	0.045982 	4915 	0.044551
39.19 	0.046573 	4917 	0.046335
39.23 	0.049746 	4925 	0.049151
39.27 	0.047862 	4910 	0.047126
39.31 	0.045045 	4884 	0.044565
39.35 	0.047822 	4935 	0.047347
39.39 	0.048286 	4929 	0.046959
39.43 	0.046017 	4933 	0.045660
39.47 	0.047735 	4923 	0.047021
39.51 	0.042648 	4924 	0.042172
39.55 	0.046148 	4919 	0.045671
39.59 	0.041735 	4912 	0.041138
39.63 	0.034945 	4922 	0.034707
39.67 	0.046815 	4913 	0.046218
39.71 	0.043718 	4895 	0.043000
39.75 	0.045860 	4928 	0.045028
39.79 	0.039789 	4926 	0.039432
39.83 	0.047021 	4934 	0.046546
39.87 	0.049137 	4925 	0.048304
39.91 	0.046323 	4922 	0.045371
39.95 	0.050458 	4915 	0.049028
39.99 	0.043390 	4932 	0.043034
40.03 	0.045657 	4928 	0.045063
40.07 	0.037985 	4923 	0.037866
40.11 	0.044955 	4916 	0.044240
40.15 	0.041726 	4913 	0.041488
40.19 	0.048083 	4929 	0.047726
40.23 	0.046431 	4932 	0.045956
40.27 	0.040105 	4937 	0.039749
40.31 	0.045961 	4939 	0.045012
40.35 	0.040049 	4919 	0.039572
40.39 	0.040560 	4931 	0.039847
40.43 	0.045307 	4922 	0.044831
40.47 	0.040260 	4918 	0.040022
40.51 	0.044900 	4922 	0.043829
40.55 	0.044214 	4908 	0.043855
40.59 	0.042131 	4937 	0.041419
40.63 	0.049696 	4930 	0.048983
40.67 	0.044809 	4932 	0.043740
40.71 	0.043998 	4932 	0.043523
40.75 	0.039140 	4931 	0.038665
40.79 	0.046710 	4924 	0.045996
40.83 	0.040990 	4928 	0.040871
40.87 	0.046266 	4928 	0.045791
40.91 	0.040626 	4923 	0.039793
40.95 	0.042540 	4913 	0.042063
40.99 	0.048132 	4924 	0.047299
41.03 	0.040571 	4905 	0.040093
41.07 	0.042191 	4930 	0.042072
41.11 	0.040527 	4935 	0.040171
41.15 	0.042097 	4941 	0.041978
41.19 	0.042394 	4930 	0.041799
41.23 	0.045961 	4939 	0.045249
41.27 	0.037721 	4931 	0.037127
41.31 	0.040746 	4933 	0.040152
41.35 	0.040705 	4938 	0.040230
41.39 	0.040949 	4933 	0.040236
41.43 	0.041388 	4929 	0.040793
41.47 	0.044255 	4926 	0.043660
41.51 	0.043320 	4940 	0.042608
41.55 	0.039716 	4935 	0.039242
41.59 	0.035070 	4933 	0.034714
41.63 	0.039085 	4938 	0.038254
41.67 	0.038664 	4940 	0.037834
41.71 	0.043575 	4934 	0.043338
41.75 	0.044431 	4929 	0.043837
41.79 	0.039644 	4944 	0.039526
41.83 	0.035917 	4928 	0.035798
41.87 	0.040932 	4935 	0.040082
41.91 	0.041126 	4936 	0.040652
41.95 	0.040965 	4931 	0.040352
41.99 	0.038328 	4905 	0.037612
42.03 	0.036040 	4939 	0.035802
42.07 	0.043144 	4937 	0.042550
42.11 	0.036198 	4945 	0.035843
42.15 	0.042932 	4938 	0.042221
42.19 	0.040139 	4908 	0.039661
42.23 	0.040474 	4892 	0.039876
42.27 	0.039598 	4874 	0.039237
42.31 	0.036251 	4855 	0.035749
42.35 	0.040926 	4838 	0.040321
42.39 	0.037885 	4804 	0.037763
42.43 	0.040067 	4792 	0.039211
42.47 	0.040084 	4765 	0.039838
42.51 	0.043011 	4743 	0.042640
42.55 	0.033347 	4708 	0.032850
42.59 	0.036583 	4729 	0.036459
42.63 	0.041622 	4709 	0.040627
42.67 	0.033091 	4684 	0.033091
42.71 	0.039888 	4663 	0.039365
42.75 	0.036604 	4617 	0.036223
42.79 	0.036883 	4582 	0.036500
42.83 	0.037919 	4536 	0.037531
42.87 	0.039120 	4499 	0.038469
42.91 	0.034785 	4456 	0.034390
42.95 	0.039402 	4416 	0.038739
42.99 	0.042645 	4385 	0.042378
43.03 	0.043388 	4333 	0.043118
43.07 	0.042598 	4296 	0.041780
43.11 	0.044183 	4255 	0.044046
43.15 	0.035663 	4206 	0.035524
43.19 	0.039580 	4194 	0.039161
43.23 	0.033462 	4154 	0.033039
43.27 	0.041169 	4105 	0.041027
43.31 	0.035303 	4079 	0.034872
43.35 	0.035714 	4032 	0.035424
43.39 	0.037981 	4002 	0.037249
43.43 	0.040152 	3960 	0.039560
43.47 	0.039021 	3921 	0.038274
43.51 	0.039464 	3877 	0.038859
43.55 	0.040148 	2964 	0.039358
43.59 	0.026919 	1746 	0.026919
43.63 	0.035964 	1001 	0.035964
43.67 	0.041833 	502 	0.040666
43.71 	0.033473 	239 	0.033473
43.75 	0.000000 	16 	0.000000