File: Example_Data/25SC_s1_0013.002.dat
#F C:\frames\spec\25SC_s1_0013.002
#C title =s:13 frm:2 25SC_s1
#C wavelength =0.15406

#S 1  fr_average C:\frames\spec\25SC_s1_0013.002 C:\win32app\speccom\mask.axs chi 0 180 0 360 0.02
#C 2 theta =0.000000 to 180 deg
#C   q   =0.000000 to 81.568 nm^-1
#C  chi  =0.000000 to 360 deg
#C collumns:
#C  1 position (2theta or chi in degrees)
#C  2 average intensity (sum of all counts in the region divided with number of pixels)
#C  3 Number of pixels in region)
#C  4 error (sum of sqrt(intensity) for all pixels divided by number)
#N 4
#L TTh  Int  N_pix  Err
32.99 	0.098361 	61 	0.098361
33.03 	0.055356 	1391 	0.054935
33.07 	0.060000 	2050 	0.058857
33.11 	0.062040 	2579 	0.060412
33.15 	0.060020 	2999 	0.059239
33.19 	0.055955 	3342 	0.055429
33.23 	0.053080 	3523 	0.052415
33.27 	0.055096 	3630 	0.054128
33.31 	0.056011 	3660 	0.055051
33.35 	0.054683 	3694 	0.054049
33.39 	0.055779 	3729 	0.054994
33.43 	0.060356 	3761 	0.058748
33.47 	0.056082 	3798 	0.055311
33.51 	0.055046 	3815 	0.054432
33.55 	0.069997 	3843 	0.067533
33.59 	0.055928 	3880 	0.054569
33.63 	0.058433 	3919 	0.056914
33.67 	0.058422 	3954 	0.057089
33.71 	0.062138 	3975 	0.060665
33.75 	0.061015 	3999 	0.059990
33.79 	0.058649 	4041 	0.057924
33.83 	0.062222 	4050 	0.060631
33.87 	0.064218 	4111 	0.062200
33.91 	0.061461 	4149 	0.060755
33.95 	0.063860 	4181 	0.062739
33.99 	0.054524 	4200 	0.053826
34.03 	0.060320 	4244 	0.059492
34.07 	0.068182 	4268 	0.066672
34.11 	0.056020 	4302 	0.055067
34.15 	0.062110 	4331 	0.061164
34.19 	0.063503 	4362 	0.062138
34.23 	0.057364 	4393 	0.055897
34.27 	0.052917 	4422 	0.051990
34.31 	0.060117 	4458 	0.059460
34.35 	0.057092 	4484 	0.056439
34.39 	0.051755 	4502 	0.050584
34.43 	0.060366 	4539 	0.059333
34.47 	0.052047 	4592 	0.051027
34.51 	0.058402 	4606 	0.057512
34.55 	0.050183 	4643 	0.048543
34.59 	0.056471 	4675 	0.055593
34.63 	0.059448 	4710 	0.058329
34.67 	0.057794 	4741 	0.057299
34.71 	0.053084 	4766 	0.052224
34.75 	0.058236 	4808 	0.057505
34.79 	0.054104 	4824 	0.053740
34.83 	0.056972 	4862 	0.056370
34.87 	0.060394 	4868 	0.059311
34.91 	0.059812 	4882 	0.058442
34.95 	0.056237 	4890 	0.055039
34.99 	0.062079 	4897 	0.061002
35.03 	0.057657 	4943 	0.056453
35.07 	0.050000 	4940 	0.048577
35.11 	0.057004 	4947 	0.055465
35.15 	0.056917 	4937 	0.055731
35.19 	0.064549 	4942 	0.063245
35.23 	0.063498 	4945 	0.062906
35.27 	0.059822 	4948 	0.059112
35.31 	0.049666 	4933 	0.049309
35.35 	0.060299 	4942 	0.058996
35.39 	0.060870 	4945 	0.058955
35.43 	0.058180 	4933 	0.056992
35.47 	0.053133 	4931 	0.052401
35.51 	0.063743 	4926 	0.062792
35.55 	0.053792 	4945 	0.053318
35.59 	0.055005 	4945 	0.054057
35.63 	0.057253 	4943 	0.056068
35.67 	0.055241 	4942 	0.054767
35.71 	0.056309 	4937 	0.055242
35.75 	0.064490 	4931 	0.062926
35.79 	0.053528 	4932 	0.052459
35.83 	0.059644 	4946 	0.058559
35.87 	0.057079 	4923 	0.055413
35.91 	0.055815 	4927 	0.054864
35.95 	0.053895 	4917 	0.052822
35.99 	0.060336 	4939 	0.059387
36.03 	0.055230 	4943 	0.054144
36.07 	0.056692 	4939 	0.055980
36.11 	0.063502 	4929 	0.062056
36.15 	0.052845 	4939 	0.052014
36.19 	0.056680 	4940 	0.054526
36.23 	0.062411 	4935 	0.060987
36.27 	0.061523 	4925 	0.060452
36.31 	0.055601 	4928 	0.055125
36.35 	0.057415 	4929 	0.056227
36.39 	0.070514 	4921 	0.069086
36.43 	0.056818 	4928 	0.055392
36.47 	0.053485 	4936 	0.052891
36.51 	0.055950 	4933 	0.054980
36.55 	0.060280 	4927 	0.058972
36.59 	0.066208 	4939 	0.064666
36.63 	0.053539 	4931 	0.052945
36.67 	0.056998 	4930 	0.056404
36.71 	0.054867 	4921 	0.053776
36.75 	0.054814 	4944 	0.054221
36.79 	0.052022 	4921 	0.051427
36.83 	0.055137 	4915 	0.054422
36.87 	0.055421 	4944 	0.054591
36.91 	0.057478 	4941 	0.056648
36.95 	0.054125 	4933 	0.053769
36.99 	0.054306 	4935 	0.053337
37.03 	0.058083 	4924 	0.057607
37.07 	0.058967 	4935 	0.057760
37.11 	0.062006 	4935 	0.061175
37.15 	0.058464 	4909 	0.057271
37.19 	0.057868 	4925 	0.057035
37.23 	0.053884 	4918 	0.053526
37.27 	0.055987 	4894 	0.055029
37.31 	0.056940 	4935 	0.056465
37.35 	0.055488 	4938 	0.054401
37.39 	0.056986 	4931 	0.056036
37.43 	0.056367 	4932 	0.055535
37.47 	0.053561 	4929 	0.052828
37.51 	0.052706 	4933 	0.052588
37.55 	0.053347 	4930 	0.052753
37.59 	0.050865 	4915 	0.049792
37.63 	0.056719 	4919 	0.055647
37.67 	0.055057 	4904 	0.054460
37.71 	0.053358 	4929 	0.052645
37.75 	0.055870 	4940 	0.055752
37.79 	0.056592 	4930 	0.055761
37.83 	0.054878 	4920 	0.053806
37.87 	0.058109 	4939 	0.056310
37.91 	0.050304 	4930 	0.049829
37.95 	0.049583 	4921 	0.048592
37.99 	0.054764 	4912 	0.054048
38.03 	0.046242 	4909 	0.046003
38.07 	0.053779 	4909 	0.052585
38.11 	0.052482 	4935 	0.051651
38.15 	0.052054 	4918 	0.051815
38.19 	0.049493 	4930 	0.049018
38.23 	0.059336 	4938 	0.058149
38.27 	0.051724 	4930 	0.051368
38.31 	0.052567 	4927 	0.051616
38.35 	0.056209 	4928 	0.055734
38.39 	0.053168 	4909 	0.052332
38.43 	0.058584 	4916 	0.057273
38.47 	0.057877 	4907 	0.056086
38.51 	0.059611 	4932 	0.058185
38.55 	0.065640 	4936 	0.064790
38.59 	0.064175 	4924 	0.063700
38.63 	0.064988 	4924 	0.063422
38.67 	0.060968 	4937 	0.059900
38.71 	0.055240 	4924 	0.054268
38.75 	0.052162 	4927 	0.051310
38.79 	0.054114 	4934 	0.053639
38.83 	0.057532 	4919 	0.056560
38.87 	0.056200 	4911 	0.055604
38.91 	0.055272 	4903 	0.053958
38.95 	0.045954 	4918 	0.045358
38.99 	0.048410 	4937 	0.047935
39.03 	0.043778 	4934 	0.043540
39.07 	0.049553 	4924 	0.048701
39.11 	0.051308 	4931 	0.050120
39.15 	0.049034 	4915 	0.048438
39.19 	0.048607 	4917 	0.047892
39.23 	0.048934 	4925 	0.048101
39.27 	0.043788 	4910 	0.043192
39.31 	0.047093 	4884 	0.046373
39.35 	0.044174 	4935 	0.043106
39.39 	0.048894 	4929 	0.048300
39.43 	0.050882 	4933 	0.050288
39.47 	0.043673 	4923 	0.043078
39.51 	0.045898 	4924 	0.045422
39.55 	0.047571 	4919 	0.046380
39.59 	0.050692 	4912 	0.049977
39.63 	0.042462 	4922 	0.042105
39.67 	0.041726 	4913 	0.041130
39.71 	0.047600 	4895 	0.046762
39.75 	0.045657 	4928 	0.045063
39.79 	0.044864 	4926 	0.044269
39.83 	0.050872 	4934 	0.050397
39.87 	0.046091 	4925 	0.045735
39.91 	0.048354 	4922 	0.047621
39.95 	0.039674 	4915 	0.039555
39.99 	0.048459 	4932 	0.047509
40.03 	0.045455 	4928 	0.045098
40.07 	0.042657 	4923 	0.042300
40.11 	0.045972 	4916 	0.045138
40.15 	0.041930 	4913 	0.041691
40.19 	0.043214 	4929 	0.042501
40.23 	0.043593 	4932 	0.043118
40.27 	0.047195 	4937 	0.046245
40.31 	0.046568 	4939 	0.045857
40.35 	0.043911 	4919 	0.043078
40.39 	0.042993 	4931 	0.042399
40.43 	0.043885 	4922 	0.043647
40.47 	0.045750 	4918 	0.044797
40.51 	0.044088 	4922 	0.043969
40.55 	0.043602 	4908 	0.043244
40.59 	0.040105 	4937 	0.039393
40.63 	0.047465 	4930 	0.046870
40.67 	0.047040 	4932 	0.046565
40.71 	0.042376 	4932 	0.041664
40.75 	0.038329 	4931 	0.038329
40.79 	0.041024 	4924 	0.040667
40.83 	0.039367 	4928 	0.038773
40.87 	0.041599 	4928 	0.041124
40.91 	0.043063 	4923 	0.042825
40.95 	0.040912 	4913 	0.040196
40.99 	0.045898 	4924 	0.045422
41.03 	0.045056 	4905 	0.044340
41.07 	0.041988 	4930 	0.041275
41.11 	0.039919 	4935 	0.039800
41.15 	0.038859 	4941 	0.038503
41.19 	0.046653 	4930 	0.046059
41.23 	0.039482 	4939 	0.038889
41.27 	0.038937 	4931 	0.038462
41.31 	0.043381 	4933 	0.042906
41.35 	0.043742 	4938 	0.043268
41.39 	0.040341 	4933 	0.040341
41.43 	0.038953 	4929 	0.038121
41.47 	0.036135 	4926 	0.035540
41.51 	0.042713 	4940 	0.042475
41.55 	0.041945 	4935 	0.041589
41.59 	0.041760 	4933 	0.041403
41.63 	0.044552 	4938 	0.044078
41.67 	0.043522 	4940 	0.042692
41.71 	0.046210 	4934 	0.045854
41.75 	0.041591 	4929 	0.041234
41.79 	0.043689 	4944 	0.043334
41.83 	0.039773 	4928 	0.039178
41.87 	0.042351 	4935 	0.041757
41.91 	0.045178 	4936 	0.044941
41.95 	0.041168 	4931 	0.040812
41.99 	0.040367 	4905 	0.039889
42.03 	0.040696 	4939 	0.040321
42.07 	0.038080 	4937 	0.037368
42.11 	0.039838 	4945 	0.039246
42.15 	0.040502 	4938 	0.039672
42.19 	0.042176 	4908 	0.041579
42.23 	0.042723 	4892 	0.042483
42.27 	0.038777 	4874 	0.038176
42.31 	0.043872 	4855 	0.043752
42.35 	0.043200 	4838 	0.042715
42.39 	0.036428 	4804 	0.035940
42.43 	0.041110 	4792 	0.040621
42.47 	0.039035 	4765 	0.038666
42.51 	0.037318 	4743 	0.037071
42.55 	0.038870 	4708 	0.038497
42.59 	0.043138 	4729 	0.042766
42.63 	0.039924 	4709 	0.039675
42.67 	0.039496 	4684 	0.038871
42.71 	0.037529 	4663 	0.036776
42.75 	0.040069 	4617 	0.039562
42.79 	0.036229 	4582 	0.035717
42.83 	0.041005 	4536 	0.040747
42.87 	0.041787 	4499 	0.041266
42.91 	0.037478 	4456 	0.036952
42.95 	0.040308 	4416 	0.039910
42.99 	0.037400 	4385 	0.037133
43.03 	0.033003 	4333 	0.032732
43.07 	0.040503 	4296 	0.039799
43.11 	0.039483 	4255 	0.039208
43.15 	0.038041 	4206 	0.037762
43.19 	0.043872 	4194 	0.043733
43.23 	0.039239 	4154 	0.039098
43.27 	0.044580 	4105 	0.044009
43.31 	0.038490 	4079 	0.037748
43.35 	0.039187 	4032 	0.038896
43.39 	0.033983 	4002 	0.033837
43.43 	0.035859 	3960 	0.035563
43.47 	0.039276 	3921 	0.039126
43.51 	0.034563 	3877 	0.034110
43.55 	0.037449 	2964 	0.037054
43.59 	0.033219 	1746 	0.033219
43.63 	0.030969 	1001 	0.030969
43.67 	0.039841 	502 	0.038674
43.71 	0.062762 	239 	0.062762
43.75 	0.000000 	16 	0.000000