File: Example_Data/25SC_s1_0046.000.dat
#F C:\frames\spec\25SC_s1_0046.000
#C title =s:46 frm:0 25SC_s1
#C wavelength =0.15406

#S 1  fr_average C:\frames\spec\25SC_s1_0046.000 C:\win32app\speccom\mask.axs chi 0 180 0 360 0.02
#C 2 theta =0.000000 to 180 deg
#C   q   =0.000000 to 81.568 nm^-1
#C  chi  =0.000000 to 360 deg
#C collumns:
#C  1 position (2theta or chi in degrees)
#C  2 average intensity (sum of all counts in the region divided with number of pixels)
#C  3 Number of pixels in region)
#C  4 error (sum of sqrt(intensity) for all pixels divided by number)
#N 4
#L TTh  Int  N_pix  Err
32.99 	0.000000 	61 	0.000000
33.03 	0.063983 	1391 	0.062719
33.07 	0.067805 	2050 	0.066948
33.11 	0.065142 	2579 	0.063779
33.15 	0.057019 	2999 	0.056042
33.19 	0.054458 	3342 	0.053757
33.23 	0.055351 	3523 	0.054353
33.27 	0.060606 	3630 	0.059289
33.31 	0.063661 	3660 	0.062061
33.35 	0.059827 	3694 	0.059192
33.39 	0.058729 	3729 	0.058101
33.43 	0.062749 	3761 	0.061971
33.47 	0.070563 	3798 	0.068867
33.51 	0.058978 	3815 	0.058210
33.55 	0.061671 	3843 	0.060908
33.59 	0.053866 	3880 	0.053262
33.63 	0.062771 	3919 	0.061700
33.67 	0.062974 	3954 	0.061789
33.71 	0.053082 	3975 	0.052198
33.75 	0.057014 	3999 	0.056258
33.79 	0.065330 	4041 	0.063881
33.83 	0.061728 	4050 	0.060114
33.87 	0.061785 	4111 	0.061050
33.91 	0.063148 	4149 	0.061548
33.95 	0.059077 	4181 	0.057536
33.99 	0.059762 	4200 	0.058925
34.03 	0.061499 	4244 	0.060532
34.07 	0.058575 	4268 	0.057889
34.11 	0.058577 	4302 	0.057466
34.15 	0.060725 	4331 	0.059643
34.19 	0.056855 	4362 	0.055758
34.23 	0.058730 	4393 	0.057796
34.27 	0.061058 	4422 	0.059734
34.31 	0.059668 	4458 	0.058880
34.35 	0.055977 	4484 	0.054670
34.39 	0.058196 	4502 	0.057416
34.43 	0.059484 	4539 	0.058581
34.47 	0.067073 	4592 	0.065925
34.51 	0.061659 	4606 	0.060620
34.55 	0.052121 	4643 	0.051617
34.59 	0.056898 	4675 	0.055896
34.63 	0.059236 	4710 	0.058241
34.67 	0.055263 	4741 	0.055015
34.71 	0.050986 	4766 	0.050126
34.75 	0.056572 	4808 	0.055456
34.79 	0.059287 	4824 	0.058174
34.83 	0.061086 	4862 	0.060002
34.87 	0.058546 	4868 	0.056961
34.91 	0.058378 	4882 	0.056818
34.95 	0.054601 	4890 	0.053643
34.99 	0.057178 	4897 	0.055982
35.03 	0.051993 	4943 	0.051400
35.07 	0.053644 	4940 	0.052913
35.11 	0.054579 	4947 	0.053394
35.15 	0.055904 	4937 	0.054837
35.19 	0.057467 	4942 	0.056518
35.23 	0.055814 	4945 	0.054728
35.27 	0.059822 	4948 	0.058500
35.31 	0.054125 	4933 	0.053413
35.35 	0.057467 	4942 	0.056755
35.39 	0.056825 	4945 	0.055404
35.43 	0.058382 	4933 	0.057432
35.47 	0.059217 	4931 	0.057910
35.51 	0.052781 	4926 	0.051830
35.55 	0.056218 	4945 	0.055389
35.59 	0.059454 	4945 	0.058013
35.63 	0.051790 	4943 	0.051060
35.67 	0.054634 	4942 	0.053448
35.71 	0.058740 	4937 	0.057297
35.75 	0.063070 	4931 	0.061882
35.79 	0.057989 	4932 	0.057157
35.83 	0.052770 	4946 	0.052296
35.87 	0.056673 	4923 	0.055602
35.91 	0.062107 	4927 	0.060323
35.95 	0.062436 	4917 	0.061603
35.99 	0.060134 	4939 	0.059185
36.03 	0.053409 	4943 	0.053053
36.07 	0.058311 	4939 	0.057007
36.11 	0.049909 	4929 	0.049433
36.15 	0.063778 	4939 	0.062592
36.19 	0.061943 	4940 	0.060738
36.23 	0.058156 	4935 	0.057206
36.27 	0.059086 	4925 	0.057183
36.31 	0.058442 	4928 	0.057253
36.35 	0.060256 	4929 	0.059543
36.39 	0.054867 	4921 	0.053895
36.43 	0.055195 	4928 	0.054719
36.47 	0.058955 	4936 	0.057768
36.51 	0.056152 	4933 	0.055321
36.55 	0.058656 	4927 	0.057467
36.59 	0.062563 	4939 	0.061496
36.63 	0.061245 	4931 	0.060295
36.67 	0.061460 	4930 	0.060153
36.71 	0.059541 	4921 	0.058350
36.75 	0.056634 	4944 	0.055805
36.79 	0.059947 	4921 	0.059352
36.83 	0.062869 	4915 	0.061657
36.87 	0.063511 	4944 	0.062919
36.91 	0.056062 	4941 	0.054639
36.95 	0.060409 	4933 	0.059460
36.99 	0.059372 	4935 	0.057829
37.03 	0.057677 	4924 	0.056963
37.07 	0.061803 	4935 	0.060360
37.11 	0.055724 	4935 	0.054894
37.15 	0.061723 	4909 	0.060411
37.19 	0.055228 	4925 	0.054396
37.23 	0.063644 	4918 	0.062453
37.27 	0.059052 	4894 	0.058214
37.31 	0.051064 	4935 	0.050826
37.35 	0.062778 	4938 	0.061592
37.39 	0.055364 	4931 	0.055126
37.43 	0.057583 	4932 	0.056752
37.47 	0.052343 	4929 	0.051274
37.51 	0.054531 	4933 	0.053699
37.55 	0.055781 	4930 	0.054692
37.59 	0.058189 	4915 	0.056997
37.63 	0.056922 	4919 	0.055969
37.67 	0.058931 	4904 	0.058095
37.71 	0.050720 	4929 	0.049651
37.75 	0.057490 	4940 	0.056541
37.79 	0.054970 	4930 	0.053999
37.83 	0.057317 	4920 	0.057079
37.87 	0.051022 	4939 	0.050548
37.91 	0.055375 	4930 	0.054662
37.95 	0.054664 	4921 	0.054188
37.99 	0.055375 	4912 	0.054540
38.03 	0.057446 	4909 	0.056014
38.07 	0.058871 	4909 	0.057659
38.11 	0.062614 	4935 	0.061546
38.15 	0.064660 	4918 	0.062636
38.19 	0.069371 	4930 	0.068064
38.23 	0.066829 	4938 	0.064911
38.27 	0.069574 	4930 	0.068148
38.31 	0.068805 	4927 	0.067735
38.35 	0.074878 	4928 	0.073690
38.39 	0.072927 	4909 	0.071834
38.43 	0.083808 	4916 	0.080571
38.47 	0.082535 	4907 	0.081202
38.51 	0.074818 	4932 	0.073155
38.55 	0.079214 	4936 	0.076840
38.59 	0.078392 	4924 	0.077202
38.63 	0.081438 	4924 	0.079396
38.67 	0.062589 	4937 	0.061521
38.71 	0.069862 	4924 	0.067919
38.75 	0.061904 	4927 	0.060814
38.79 	0.064045 	4934 	0.062739
38.83 	0.050823 	4919 	0.050109
38.87 	0.049074 	4911 	0.048716
38.91 	0.051805 	4903 	0.051069
38.95 	0.052867 	4918 	0.051895
38.99 	0.048005 	4937 	0.046680
39.03 	0.042967 	4934 	0.042374
39.07 	0.050162 	4924 	0.049330
39.11 	0.041371 	4931 	0.040658
39.15 	0.051882 	4915 	0.051405
39.19 	0.047793 	4917 	0.047555
39.23 	0.046294 	4925 	0.046057
39.27 	0.041141 	4910 	0.040783
39.31 	0.044636 	4884 	0.044396
39.35 	0.047619 	4935 	0.047144
39.39 	0.049097 	4929 	0.048622
39.43 	0.047436 	4933 	0.046466
39.47 	0.041844 	4923 	0.041368
39.51 	0.044882 	4924 	0.043930
39.55 	0.050620 	4919 	0.049906
39.59 	0.048860 	4912 	0.048621
39.63 	0.045713 	4922 	0.045356
39.67 	0.044576 	4913 	0.044099
39.71 	0.042901 	4895 	0.042542
39.75 	0.044237 	4928 	0.043762
39.79 	0.049736 	4926 	0.049498
39.83 	0.048034 	4934 	0.047797
39.87 	0.045076 	4925 	0.044362
39.91 	0.043275 	4922 	0.042799
39.95 	0.046389 	4915 	0.045793
39.99 	0.050487 	4932 	0.049398
40.03 	0.042614 	4928 	0.041900
40.07 	0.043469 	4923 	0.043350
40.11 	0.038649 	4916 	0.038292
40.15 	0.039284 	4913 	0.038926
40.19 	0.041388 	4929 	0.041150
40.23 	0.044404 	4932 	0.043672
40.27 	0.042536 	4937 	0.041587
40.31 	0.048998 	4939 	0.048761
40.35 	0.038422 	4919 	0.038065
40.39 	0.050294 	4931 	0.049462
40.43 	0.037790 	4922 	0.037313
40.47 	0.039447 	4918 	0.038832
40.51 	0.045510 	4922 	0.045391
40.55 	0.044214 	4908 	0.043617
40.59 	0.042131 	4937 	0.041656
40.63 	0.042596 	4930 	0.042359
40.67 	0.043187 	4932 	0.042831
40.71 	0.042985 	4932 	0.042272
40.75 	0.041574 	4931 	0.040980
40.79 	0.045288 	4924 	0.044813
40.83 	0.041802 	4928 	0.040950
40.87 	0.038149 	4928 	0.037317
40.91 	0.038797 	4923 	0.038441
40.95 	0.042337 	4913 	0.042098
40.99 	0.045085 	4924 	0.044728
41.03 	0.046075 	4905 	0.045239
41.07 	0.043205 	4930 	0.042967
41.11 	0.042351 	4935 	0.041757
41.15 	0.038656 	4941 	0.038300
41.19 	0.045639 	4930 	0.045282
41.23 	0.044948 	4939 	0.044711
41.27 	0.042182 	4931 	0.041707
41.31 	0.045003 	4933 	0.044291
41.35 	0.046173 	4938 	0.045461
41.39 	0.037908 	4933 	0.037195
41.43 	0.032867 	4929 	0.032510
41.47 	0.040804 	4926 	0.040685
41.51 	0.042105 	4940 	0.041512
41.55 	0.037487 	4935 	0.036775
41.59 	0.041760 	4933 	0.041403
41.63 	0.044552 	4938 	0.044315
41.67 	0.036235 	4940 	0.035998
41.71 	0.036076 	4934 	0.035483
41.75 	0.040779 	4929 	0.040304
41.79 	0.045712 	4944 	0.045475
41.83 	0.034091 	4928 	0.033734
41.87 	0.036879 	4935 	0.036405
41.91 	0.041937 	4936 	0.041581
41.95 	0.040154 	4931 	0.039323
41.99 	0.032620 	4905 	0.032381
42.03 	0.040089 	4939 	0.039970
42.07 	0.040510 	4937 	0.040036
42.11 	0.035389 	4945 	0.034679
42.15 	0.037667 	4938 	0.037193
42.19 	0.040546 	4908 	0.039691
42.23 	0.039861 	4892 	0.039622
42.27 	0.039598 	4874 	0.038757
42.31 	0.035221 	4855 	0.034859
42.35 	0.036792 	4838 	0.036550
42.39 	0.038718 	4804 	0.037986
42.43 	0.037563 	4792 	0.037196
42.47 	0.034837 	4765 	0.034469
42.51 	0.034999 	4743 	0.034505
42.55 	0.035259 	4708 	0.034637
42.59 	0.037217 	4729 	0.036846
42.63 	0.036738 	4709 	0.036365
42.67 	0.035867 	4684 	0.035492
42.71 	0.038602 	4663 	0.038225
42.75 	0.037687 	4617 	0.037052
42.79 	0.039502 	4582 	0.038735
42.83 	0.039021 	4536 	0.038763
42.87 	0.032674 	4499 	0.032153
42.91 	0.044883 	4456 	0.044226
42.95 	0.038496 	4416 	0.037568
42.99 	0.038084 	4385 	0.037817
43.03 	0.034156 	4333 	0.034021
43.07 	0.040968 	4296 	0.040696
43.11 	0.040188 	4255 	0.039913
43.15 	0.041369 	4206 	0.041091
43.19 	0.041726 	4194 	0.041168
43.23 	0.043572 	4154 	0.043431
43.27 	0.040438 	4105 	0.039725
43.31 	0.040941 	4079 	0.039936
43.35 	0.036954 	4032 	0.035502
43.39 	0.036982 	4002 	0.036250
43.43 	0.036869 	3960 	0.035981
43.47 	0.036215 	3921 	0.035916
43.51 	0.032499 	3877 	0.032499
43.55 	0.037112 	2964 	0.036717
43.59 	0.032646 	1746 	0.032646
43.63 	0.040959 	1001 	0.040959
43.67 	0.031873 	502 	0.028180
43.71 	0.020921 	239 	0.020921
43.75 	0.062500 	16 	0.062500