File: Example_Data/25SC_s1_0034.003.dat
#F C:\frames\spec\25SC_s1_0034.003
#C title =s:34 frm:3 25SC_s1
#C wavelength =0.15406

#S 1  fr_average C:\frames\spec\25SC_s1_0034.003 C:\win32app\speccom\mask.axs chi 0 180 0 360 0.02
#C 2 theta =0.000000 to 180 deg
#C   q   =0.000000 to 81.568 nm^-1
#C  chi  =0.000000 to 360 deg
#C collumns:
#C  1 position (2theta or chi in degrees)
#C  2 average intensity (sum of all counts in the region divided with number of pixels)
#C  3 Number of pixels in region)
#C  4 error (sum of sqrt(intensity) for all pixels divided by number)
#N 4
#L TTh  Int  N_pix  Err
32.99 	0.065574 	61 	0.065574
33.03 	0.053918 	1391 	0.053076
33.07 	0.056585 	2050 	0.056300
33.11 	0.063978 	2579 	0.062843
33.15 	0.067689 	2999 	0.066713
33.19 	0.064333 	3342 	0.063632
33.23 	0.051093 	3523 	0.050261
33.27 	0.055923 	3630 	0.054632
33.31 	0.057923 	3660 	0.056483
33.35 	0.054683 	3694 	0.054049
33.39 	0.063824 	3729 	0.062253
33.43 	0.063813 	3761 	0.063034
33.47 	0.063981 	3798 	0.063364
33.51 	0.060813 	3815 	0.060045
33.55 	0.062972 	3843 	0.061422
33.59 	0.056701 	3880 	0.055946
33.63 	0.058944 	3919 	0.058196
33.67 	0.065250 	3954 	0.064213
33.71 	0.059874 	3975 	0.059285
33.75 	0.052513 	3999 	0.052220
33.79 	0.061371 	4041 	0.060066
33.83 	0.060741 	4050 	0.059584
33.87 	0.065434 	4111 	0.064722
33.91 	0.057122 	4149 	0.055828
33.95 	0.067926 	4181 	0.067226
33.99 	0.068095 	4200 	0.066538
34.03 	0.059378 	4244 	0.058274
34.07 	0.063027 	4268 	0.061769
34.11 	0.057183 	4302 	0.056366
34.15 	0.060263 	4331 	0.059857
34.19 	0.061669 	4362 	0.060729
34.23 	0.059185 	4393 	0.058518
34.27 	0.058345 	4422 	0.057682
34.31 	0.051817 	4458 	0.050766
34.35 	0.059099 	4484 	0.058446
34.39 	0.052421 	4502 	0.051510
34.43 	0.057061 	4539 	0.056029
34.47 	0.055749 	4592 	0.054580
34.51 	0.059053 	4606 	0.058290
34.55 	0.059444 	4643 	0.058687
34.59 	0.060107 	4675 	0.059856
34.63 	0.054989 	4710 	0.054492
34.67 	0.055684 	4741 	0.054820
34.71 	0.060848 	4766 	0.059864
34.75 	0.056780 	4808 	0.055664
34.79 	0.060738 	4824 	0.059159
34.83 	0.056561 	4862 	0.054995
34.87 	0.054232 	4868 	0.052628
34.91 	0.052438 	4882 	0.051838
34.95 	0.063804 	4890 	0.062486
34.99 	0.059424 	4897 	0.058706
35.03 	0.060894 	4943 	0.059808
35.07 	0.056275 	4940 	0.055920
35.11 	0.050131 	4947 	0.050013
35.15 	0.052461 	4937 	0.051986
35.19 	0.057264 	4942 	0.056534
35.23 	0.056825 	4945 	0.055996
35.27 	0.060226 	4948 	0.059398
35.31 	0.058585 	4933 	0.057754
35.35 	0.057871 	4942 	0.057160
35.39 	0.063903 	4945 	0.061840
35.43 	0.059193 	4933 	0.058599
35.47 	0.058609 	4931 	0.057540
35.51 	0.058059 	4926 	0.057207
35.55 	0.056421 	4945 	0.054881
35.59 	0.057432 	4945 	0.056346
35.63 	0.053409 	4943 	0.052461
35.67 	0.064549 	4942 	0.063482
35.71 	0.060158 	4937 	0.058971
35.75 	0.056175 	4931 	0.055581
35.79 	0.052920 	4932 	0.051494
35.83 	0.056611 	4946 	0.055190
35.87 	0.051391 	4923 	0.050677
35.91 	0.057845 	4927 	0.056893
35.95 	0.060199 	4917 	0.058889
35.99 	0.058716 	4939 	0.058123
36.03 	0.056443 	4943 	0.055495
36.07 	0.055477 	4939 	0.054390
36.11 	0.059038 	4929 	0.057949
36.15 	0.056692 	4939 	0.055387
36.19 	0.047571 	4940 	0.046741
36.23 	0.058764 	4935 	0.058527
36.27 	0.057665 	4925 	0.056713
36.31 	0.051339 	4928 	0.051102
36.35 	0.056401 	4929 	0.055807
36.39 	0.052835 	4921 	0.052240
36.43 	0.052963 	4928 	0.052131
36.47 	0.054092 	4936 	0.053380
36.51 	0.053720 	4933 	0.053126
36.55 	0.049929 	4927 	0.049097
36.59 	0.050415 	4939 	0.050059
36.63 	0.055770 	4931 	0.055057
36.67 	0.052738 	4930 	0.051550
36.71 	0.053648 	4921 	0.053291
36.75 	0.057646 	4944 	0.057290
36.79 	0.052022 	4921 	0.051308
36.83 	0.053713 	4915 	0.052382
36.87 	0.058455 	4944 	0.057270
36.91 	0.049585 	4941 	0.048992
36.95 	0.053314 	4933 	0.051771
36.99 	0.051469 	4935 	0.050994
37.03 	0.053006 	4924 	0.052054
37.07 	0.053698 	4935 	0.052630
37.11 	0.051064 	4935 	0.050114
37.15 	0.047056 	4909 	0.046221
37.19 	0.051777 	4925 	0.050687
37.23 	0.051647 	4918 	0.051290
37.27 	0.051696 	4894 	0.050958
37.31 	0.050051 	4935 	0.049338
37.35 	0.053058 	4938 	0.051634
37.39 	0.050902 	4931 	0.050071
37.43 	0.047040 	4932 	0.046327
37.47 	0.048083 	4929 	0.047607
37.51 	0.051693 	4933 	0.051099
37.55 	0.050507 	4930 	0.049913
37.59 	0.051272 	4915 	0.050557
37.63 	0.052450 	4919 	0.051854
37.67 	0.049959 	4904 	0.049004
37.71 	0.052343 	4929 	0.051749
37.75 	0.056275 	4940 	0.055090
37.79 	0.056187 	4930 	0.054979
37.83 	0.050610 	4920 	0.050134
37.87 	0.051225 	4939 	0.050395
37.91 	0.050710 	4930 	0.050353
37.95 	0.049177 	4921 	0.048463
37.99 	0.047842 	4912 	0.047007
38.03 	0.051742 	4909 	0.050548
38.07 	0.054594 	4909 	0.053878
38.11 	0.051469 	4935 	0.050401
38.15 	0.052054 	4918 	0.051200
38.19 	0.048479 	4930 	0.047766
38.23 	0.058728 	4938 	0.057661
38.27 	0.059026 	4930 	0.057581
38.31 	0.060483 	4927 	0.059889
38.35 	0.059253 	4928 	0.058540
38.39 	0.063353 	4909 	0.062040
38.43 	0.057567 	4916 	0.056376
38.47 	0.058284 	4907 	0.057448
38.51 	0.061436 	4932 	0.059773
38.55 	0.053890 	4936 	0.053178
38.59 	0.055849 	4924 	0.054402
38.63 	0.056052 	4924 	0.054466
38.67 	0.053069 	4937 	0.052475
38.71 	0.046304 	4924 	0.046185
38.75 	0.052365 	4927 	0.051770
38.79 	0.053912 	4934 	0.052804
38.83 	0.054686 	4919 	0.054090
38.87 	0.052942 	4911 	0.051988
38.91 	0.050581 	4903 	0.049506
38.95 	0.049410 	4918 	0.048696
38.99 	0.049625 	4937 	0.048657
39.03 	0.046818 	4934 	0.045749
39.07 	0.049350 	4924 	0.048993
39.11 	0.043399 	4931 	0.042924
39.15 	0.048627 	4915 	0.047912
39.19 	0.048403 	4917 	0.047689
39.23 	0.052386 	4925 	0.051434
39.27 	0.042566 	4910 	0.042089
39.31 	0.048731 	4884 	0.048131
39.35 	0.044377 	4935 	0.044021
39.39 	0.052343 	4929 	0.051987
39.43 	0.046422 	4933 	0.045947
39.47 	0.045704 	4923 	0.045228
39.51 	0.040617 	4924 	0.039904
39.55 	0.043505 	4919 	0.042909
39.59 	0.047028 	4912 	0.046431
39.63 	0.049980 	4922 	0.049742
39.67 	0.051496 	4913 	0.050781
39.71 	0.045148 	4895 	0.044550
39.75 	0.043019 	4928 	0.041831
39.79 	0.047909 	4926 	0.046839
39.83 	0.049250 	4934 	0.048538
39.87 	0.049543 	4925 	0.048711
39.91 	0.045104 	4922 	0.044013
39.95 	0.044354 	4915 	0.043639
39.99 	0.045823 	4932 	0.045111
40.03 	0.044440 	4928 	0.044083
40.07 	0.050376 	4923 	0.049781
40.11 	0.048617 	4916 	0.048259
40.15 	0.048850 	4913 	0.048254
40.19 	0.049706 	4929 	0.049349
40.23 	0.041363 	4932 	0.040769
40.27 	0.044359 	4937 	0.043766
40.31 	0.046973 	4939 	0.046499
40.35 	0.047571 	4919 	0.047094
40.39 	0.041777 	4931 	0.041183
40.43 	0.047948 	4922 	0.047710
40.47 	0.046564 	4918 	0.046325
40.51 	0.050386 	4922 	0.049553
40.55 	0.045640 	4908 	0.044665
40.59 	0.038890 	4937 	0.038178
40.63 	0.049087 	4930 	0.048493
40.67 	0.045620 	4932 	0.045264
40.71 	0.038727 	4932 	0.038489
40.75 	0.042588 	4931 	0.042231
40.79 	0.047319 	4924 	0.046962
40.83 	0.043019 	4928 	0.042663
40.87 	0.046063 	4928 	0.045350
40.91 	0.046923 	4923 	0.045971
40.95 	0.040912 	4913 	0.040435
40.99 	0.045288 	4924 	0.044456
41.03 	0.041182 	4905 	0.040824
41.07 	0.046045 	4930 	0.045451
41.11 	0.039514 	4935 	0.039158
41.15 	0.036430 	4941 	0.035956
41.19 	0.040162 	4930 	0.039568
41.23 	0.041709 	4939 	0.041353
41.27 	0.043805 	4931 	0.042617
41.31 	0.044800 	4933 	0.044207
41.35 	0.042730 	4938 	0.042255
41.39 	0.041760 	4933 	0.041166
41.43 	0.042402 	4929 	0.041689
41.47 	0.042428 	4926 	0.042190
41.51 	0.044332 	4940 	0.043739
41.55 	0.044580 	4935 	0.044105
41.59 	0.040543 	4933 	0.040187
41.63 	0.042932 	4938 	0.041983
41.67 	0.040081 	4940 	0.040081
41.71 	0.043575 	4934 	0.042863
41.75 	0.047474 	4929 	0.047355
41.79 	0.043285 	4944 	0.042455
41.83 	0.035511 	4928 	0.035036
41.87 	0.042553 	4935 	0.042197
41.91 	0.044368 	4936 	0.043537
41.95 	0.037315 	4931 	0.036840
41.99 	0.040979 	4905 	0.040620
42.03 	0.044138 	4939 	0.043545
42.07 	0.038890 	4937 	0.038415
42.11 	0.043074 	4945 	0.042600
42.15 	0.039692 	4938 	0.039336
42.19 	0.038916 	4908 	0.038319
42.23 	0.043336 	4892 	0.042498
42.27 	0.042470 	4874 	0.041869
42.31 	0.040989 	4855 	0.040627
42.35 	0.040513 	4838 	0.040270
42.39 	0.044546 	4804 	0.043815
42.43 	0.042988 	4792 	0.042377
42.47 	0.039454 	4765 	0.039208
42.51 	0.045119 	4743 	0.044872
42.55 	0.043331 	4708 	0.042439
42.59 	0.045676 	4729 	0.044685
42.63 	0.038649 	4709 	0.038027
42.67 	0.045474 	4684 	0.044724
42.71 	0.044392 	4663 	0.044266
42.75 	0.039853 	4617 	0.039218
42.79 	0.037320 	4582 	0.037064
42.83 	0.041887 	4536 	0.041241
42.87 	0.043565 	4499 	0.042914
42.91 	0.044434 	4456 	0.044172
42.95 	0.041893 	4416 	0.041230
42.99 	0.037856 	4385 	0.037589
43.03 	0.040849 	4333 	0.040714
43.07 	0.038175 	4296 	0.037766
43.11 	0.033373 	4255 	0.032662
43.15 	0.039705 	4206 	0.039427
43.19 	0.043872 	4194 	0.043314
43.23 	0.041165 	4154 	0.040460
43.27 	0.038977 	4105 	0.038691
43.31 	0.036774 	4079 	0.036486
43.35 	0.035962 	4032 	0.035091
43.39 	0.043228 	4002 	0.042204
43.43 	0.043687 	3960 	0.042627
43.47 	0.042336 	3921 	0.041589
43.51 	0.036368 	3877 	0.035311
43.55 	0.039136 	2964 	0.038939
43.59 	0.048110 	1746 	0.047103
43.63 	0.045954 	1001 	0.044784
43.67 	0.059761 	502 	0.059761
43.71 	0.020921 	239 	0.020921
43.75 	0.062500 	16 	0.062500