File: Example_Data/25SC_s1_0040.003.dat
#F C:\frames\spec\25SC_s1_0040.003
#C title =s:40 frm:3 25SC_s1
#C wavelength =0.15406

#S 1  fr_average C:\frames\spec\25SC_s1_0040.003 C:\win32app\speccom\mask.axs chi 0 180 0 360 0.02
#C 2 theta =0.000000 to 180 deg
#C   q   =0.000000 to 81.568 nm^-1
#C  chi  =0.000000 to 360 deg
#C collumns:
#C  1 position (2theta or chi in degrees)
#C  2 average intensity (sum of all counts in the region divided with number of pixels)
#C  3 Number of pixels in region)
#C  4 error (sum of sqrt(intensity) for all pixels divided by number)
#N 4
#L TTh  Int  N_pix  Err
32.99 	0.032787 	61 	0.032787
33.03 	0.056075 	1391 	0.056075
33.07 	0.057073 	2050 	0.056455
33.11 	0.057774 	2579 	0.056639
33.15 	0.057352 	2999 	0.055562
33.19 	0.056254 	3342 	0.055027
33.23 	0.052228 	3523 	0.051896
33.27 	0.063636 	3630 	0.062668
33.31 	0.062022 	3660 	0.060902
33.35 	0.059285 	3694 	0.058651
33.39 	0.061411 	3729 	0.060154
33.43 	0.056900 	3761 	0.055342
33.47 	0.058189 	3798 	0.056929
33.51 	0.061861 	3815 	0.061093
33.55 	0.063752 	3843 	0.062203
33.59 	0.052320 	3880 	0.051565
33.63 	0.063281 	3919 	0.061936
33.67 	0.064745 	3954 	0.063708
33.71 	0.061384 	3975 	0.060794
33.75 	0.052013 	3999 	0.051134
33.79 	0.059886 	4041 	0.058726
33.83 	0.062716 	4050 	0.061848
33.87 	0.061299 	4111 	0.059708
33.91 	0.053507 	4149 	0.052519
33.95 	0.063621 	4181 	0.062220
33.99 	0.064286 	4200 	0.062612
34.03 	0.052309 	4244 	0.051343
34.07 	0.057170 	4268 	0.055934
34.11 	0.059275 	4302 	0.058322
34.15 	0.062341 	4331 	0.061259
34.19 	0.055708 	4362 	0.054768
34.23 	0.052811 	4393 	0.052011
34.27 	0.055857 	4422 	0.055195
34.31 	0.066622 	4458 	0.064782
34.35 	0.054639 	4484 	0.053855
34.39 	0.057086 	4502 	0.056045
34.43 	0.059044 	4539 	0.058270
34.47 	0.058580 	4592 	0.057304
34.51 	0.059705 	4606 	0.058814
34.55 	0.053844 	4643 	0.052709
34.59 	0.050481 	4675 	0.049479
34.63 	0.063270 	4710 	0.061632
34.67 	0.055684 	4741 	0.055190
34.71 	0.054553 	4766 	0.053939
34.75 	0.052413 	4808 	0.052047
34.79 	0.052239 	4824 	0.051024
34.83 	0.057589 	4862 	0.056365
34.87 	0.057929 	4868 	0.056967
34.91 	0.060221 	4882 	0.059141
34.95 	0.061145 	4890 	0.060666
34.99 	0.056361 	4897 	0.055643
35.03 	0.056443 	4943 	0.055614
35.07 	0.061134 	4940 	0.060778
35.11 	0.057813 	4947 	0.057102
35.15 	0.053879 	4937 	0.053404
35.19 	0.059490 	4942 	0.058897
35.23 	0.055612 	4945 	0.054546
35.27 	0.061237 	4948 	0.060290
35.31 	0.057166 	4933 	0.056929
35.35 	0.054634 	4942 	0.053923
35.39 	0.053589 	4945 	0.052622
35.43 	0.057166 	4933 	0.056454
35.47 	0.060637 	4931 	0.059092
35.51 	0.054202 	4926 	0.053489
35.55 	0.055612 	4945 	0.054901
35.59 	0.052174 	4945 	0.051059
35.63 	0.058062 	4943 	0.057114
35.67 	0.055848 	4942 	0.055255
35.71 	0.058538 	4937 	0.057351
35.75 	0.056378 	4931 	0.055190
35.79 	0.052514 	4932 	0.051683
35.83 	0.059038 	4946 	0.057696
35.87 	0.059720 	4923 	0.058411
35.91 	0.055409 	4927 	0.054815
35.95 	0.056945 	4917 	0.056588
35.99 	0.057097 	4939 	0.055911
36.03 	0.054623 	4943 	0.053655
36.07 	0.061348 	4939 	0.060262
36.11 	0.052546 	4929 	0.052190
36.15 	0.047378 	4939 	0.046904
36.19 	0.060324 	4940 	0.058625
36.23 	0.055319 	4935 	0.054370
36.27 	0.056244 	4925 	0.055649
36.31 	0.062094 	4928 	0.060549
36.35 	0.053763 	4929 	0.052932
36.39 	0.055273 	4921 	0.054559
36.43 	0.055398 	4928 	0.054090
36.47 	0.056118 	4936 	0.054694
36.51 	0.055342 	4933 	0.054392
36.55 	0.054800 	4927 	0.053849
36.59 	0.052845 	4939 	0.051421
36.63 	0.051916 	4931 	0.051085
36.67 	0.051318 	4930 	0.050724
36.71 	0.053241 	4921 	0.052289
36.75 	0.052589 	4944 	0.051167
36.79 	0.053038 	4921 	0.051828
36.83 	0.053510 	4915 	0.052914
36.87 	0.053196 	4944 	0.052110
36.91 	0.050799 	4941 	0.050088
36.95 	0.048652 	4933 	0.047702
36.99 	0.050051 	4935 	0.049220
37.03 	0.055037 	4924 	0.053470
37.07 	0.056130 	4935 	0.055774
37.11 	0.054103 	4935 	0.053490
37.15 	0.053371 	4909 	0.052894
37.19 	0.052386 	4925 	0.051315
37.23 	0.054697 	4918 	0.053625
37.27 	0.057009 	4894 	0.056151
37.31 	0.049037 	4935 	0.048563
37.35 	0.050020 	4938 	0.049308
37.39 	0.051105 	4931 	0.050392
37.43 	0.044404 	4932 	0.044048
37.47 	0.051532 	4929 	0.050938
37.51 	0.050679 	4933 	0.050204
37.55 	0.051318 	4930 	0.050606
37.59 	0.052085 	4915 	0.051132
37.63 	0.055296 	4919 	0.054204
37.67 	0.053222 	4904 	0.052486
37.71 	0.050923 	4929 	0.050329
37.75 	0.048785 	4940 	0.048430
37.79 	0.051927 	4930 	0.051214
37.83 	0.046748 	4920 	0.045915
37.87 	0.054667 	4939 	0.053600
37.91 	0.055781 	4930 	0.054712
37.95 	0.048567 	4921 	0.048210
37.99 	0.052117 	4912 	0.051879
38.03 	0.054797 	4909 	0.054439
38.07 	0.047464 	4909 	0.046987
38.11 	0.051266 	4935 	0.050436
38.15 	0.056934 	4918 	0.056219
38.19 	0.047870 	4930 	0.047038
38.23 	0.055083 	4938 	0.054352
38.27 	0.056592 	4930 	0.056236
38.31 	0.052770 	4927 	0.052295
38.35 	0.055601 	4928 	0.054036
38.39 	0.056427 	4909 	0.055950
38.43 	0.057364 	4916 	0.056649
38.47 	0.061749 	4907 	0.060316
38.51 	0.063869 	4932 	0.062800
38.55 	0.067869 	4936 	0.066919
38.59 	0.056052 	4924 	0.054862
38.63 	0.057677 	4924 	0.056606
38.67 	0.057930 	4937 	0.057455
38.71 	0.050975 	4924 	0.049904
38.75 	0.051959 	4927 	0.051245
38.79 	0.053709 	4934 	0.053115
38.83 	0.050823 	4919 	0.050228
38.87 	0.044594 	4911 	0.043978
38.91 	0.050785 	4903 	0.049710
38.95 	0.044530 	4918 	0.044173
38.99 	0.050841 	4937 	0.050129
39.03 	0.050872 	4934 	0.050397
39.07 	0.044882 	4924 	0.044168
39.11 	0.050497 	4931 	0.049665
39.15 	0.046389 	4915 	0.045912
39.19 	0.055318 	4917 	0.054246
39.23 	0.043452 	4925 	0.043095
39.27 	0.043177 	4910 	0.042342
39.31 	0.050164 	4884 	0.049324
39.35 	0.051874 	4935 	0.051518
39.39 	0.048894 	4929 	0.048062
39.43 	0.047030 	4933 	0.046318
39.47 	0.045907 	4923 	0.045788
39.51 	0.048944 	4924 	0.048211
39.55 	0.046351 	4919 	0.045636
39.59 	0.047435 	4912 	0.046839
39.63 	0.052824 	4922 	0.052229
39.67 	0.041522 	4913 	0.040569
39.71 	0.043309 	4895 	0.042711
39.75 	0.049310 	4928 	0.048121
39.79 	0.049939 	4926 	0.049345
39.83 	0.049453 	4934 	0.048859
39.87 	0.047716 	4925 	0.047121
39.91 	0.052621 	4922 	0.051907
39.95 	0.042930 	4915 	0.042334
39.99 	0.047648 	4932 	0.046935
40.03 	0.050933 	4928 	0.049982
40.07 	0.045501 	4923 	0.044192
40.11 	0.044752 	4916 	0.044514
40.15 	0.046204 	4913 	0.045369
40.19 	0.043822 	4929 	0.043347
40.23 	0.046229 	4932 	0.045872
40.27 	0.049828 	4937 	0.048760
40.31 	0.044543 	4939 	0.044188
40.35 	0.043911 	4919 	0.043554
40.39 	0.043196 	4931 	0.042721
40.43 	0.045104 	4922 	0.044132
40.47 	0.041277 	4918 	0.041039
40.51 	0.043478 	4922 	0.043121
40.55 	0.043806 	4908 	0.043090
40.59 	0.041118 	4937 	0.040881
40.63 	0.049696 	4930 	0.049220
40.67 	0.045418 	4932 	0.045061
40.71 	0.047648 	4932 	0.047054
40.75 	0.042588 	4931 	0.042231
40.79 	0.043664 	4924 	0.043069
40.83 	0.045049 	4928 	0.044573
40.87 	0.039976 	4928 	0.039500
40.91 	0.040626 	4923 	0.040388
40.95 	0.039894 	4913 	0.039060
40.99 	0.040617 	4924 	0.040023
41.03 	0.042813 	4905 	0.042336
41.07 	0.047059 	4930 	0.046465
41.11 	0.048430 	4935 	0.047836
41.15 	0.046549 	4941 	0.046075
41.19 	0.040365 	4930 	0.040246
41.23 	0.042519 	4939 	0.042282
41.27 	0.049280 	4931 	0.048805
41.31 	0.047030 	4933 	0.046436
41.35 	0.043742 	4938 	0.043031
41.39 	0.045408 	4933 	0.044458
41.43 	0.045648 	4929 	0.045054
41.47 	0.041616 	4926 	0.041140
41.51 	0.046356 	4940 	0.045882
41.55 	0.044782 	4935 	0.044307
41.59 	0.045611 	4933 	0.045136
41.63 	0.042527 	4938 	0.042290
41.67 	0.040486 	4940 	0.040130
41.71 	0.041954 	4934 	0.041123
41.75 	0.043417 	4929 	0.042466
41.79 	0.040655 	4944 	0.040063
41.83 	0.044643 	4928 	0.044405
41.87 	0.042553 	4935 	0.041722
41.91 	0.040924 	4936 	0.040568
41.95 	0.043805 	4931 	0.043448
41.99 	0.042813 	4905 	0.042436
42.03 	0.040696 	4939 	0.040222
42.07 	0.036257 	4937 	0.035782
42.11 	0.041456 	4945 	0.040864
42.15 	0.038882 	4938 	0.038526
42.19 	0.039324 	4908 	0.038846
42.23 	0.041496 	4892 	0.041257
42.27 	0.041444 	4874 	0.040603
42.31 	0.036045 	4855 	0.036045
42.35 	0.040719 	4838 	0.039872
42.39 	0.037885 	4804 	0.037397
42.43 	0.041319 	4792 	0.040830
42.47 	0.038405 	4765 	0.037913
42.51 	0.044487 	4743 	0.043622
42.55 	0.042906 	4708 	0.042532
42.59 	0.037852 	4729 	0.037728
42.63 	0.044595 	4709 	0.044098
42.67 	0.039710 	4684 	0.039585
42.71 	0.037958 	4663 	0.037456
42.75 	0.042885 	4617 	0.042504
42.79 	0.037975 	4582 	0.037591
42.83 	0.037698 	4536 	0.037311
42.87 	0.038898 	4499 	0.038377
42.91 	0.042415 	4456 	0.041757
42.95 	0.038496 	4416 	0.037700
42.99 	0.042417 	4385 	0.042150
43.03 	0.042926 	4333 	0.042250
43.07 	0.043296 	4296 	0.042592
43.11 	0.040658 	4255 	0.040107
43.15 	0.039230 	4206 	0.038812
43.19 	0.036719 	4194 	0.036579
43.23 	0.038036 	4154 	0.037895
43.27 	0.037028 	4105 	0.036172
43.31 	0.039225 	4079 	0.038340
43.35 	0.038194 	4032 	0.037759
43.39 	0.039980 	4002 	0.039395
43.43 	0.038636 	3960 	0.037897
43.47 	0.041316 	3921 	0.040420
43.51 	0.044880 	3877 	0.044427
43.55 	0.038124 	2964 	0.037729
43.59 	0.036655 	1746 	0.036320
43.63 	0.034965 	1001 	0.034380
43.67 	0.035857 	502 	0.035857
43.71 	0.050209 	239 	0.050209
43.75 	0.062500 	16 	0.062500