File: Example_Data/25SC_s1_0022.002.dat
#F C:\frames\spec\25SC_s1_0022.002
#C title =s:22 frm:2 25SC_s1
#C wavelength =0.15406

#S 1  fr_average C:\frames\spec\25SC_s1_0022.002 C:\win32app\speccom\mask.axs chi 0 180 0 360 0.02
#C 2 theta =0.000000 to 180 deg
#C   q   =0.000000 to 81.568 nm^-1
#C  chi  =0.000000 to 360 deg
#C collumns:
#C  1 position (2theta or chi in degrees)
#C  2 average intensity (sum of all counts in the region divided with number of pixels)
#C  3 Number of pixels in region)
#C  4 error (sum of sqrt(intensity) for all pixels divided by number)
#N 4
#L TTh  Int  N_pix  Err
32.99 	0.016393 	61 	0.016393
33.03 	0.066139 	1391 	0.064876
33.07 	0.060976 	2050 	0.060404
33.11 	0.060489 	2579 	0.059580
33.15 	0.048349 	2999 	0.047568
33.19 	0.061640 	3342 	0.060413
33.23 	0.060460 	3523 	0.058631
33.27 	0.055372 	3630 	0.054242
33.31 	0.053279 	3660 	0.052638
33.35 	0.064158 	3694 	0.062731
33.39 	0.059265 	3729 	0.058323
33.43 	0.059027 	3761 	0.058560
33.47 	0.052396 	3798 	0.052088
33.51 	0.061337 	3815 	0.060723
33.55 	0.056466 	3843 	0.056161
33.59 	0.067526 	3880 	0.065865
33.63 	0.065323 	3919 	0.063380
33.67 	0.065503 	3954 	0.063825
33.71 	0.068176 	3975 	0.066408
33.75 	0.055014 	3999 	0.054428
33.79 	0.060629 	4041 	0.058889
33.83 	0.052593 	4050 	0.051725
33.87 	0.064461 	4111 	0.063464
33.91 	0.053748 	4149 	0.052878
33.95 	0.061469 	4181 	0.060908
33.99 	0.057619 	4200 	0.056480
34.03 	0.057493 	4244 	0.056941
34.07 	0.063730 	4268 	0.062495
34.11 	0.062994 	4302 	0.061768
34.15 	0.053336 	4331 	0.052367
34.19 	0.060752 	4362 	0.059543
34.23 	0.055088 	4393 	0.054021
34.27 	0.059475 	4422 	0.058283
34.31 	0.055630 	4458 	0.054448
34.35 	0.056423 	4484 	0.056031
34.39 	0.056641 	4502 	0.054950
34.43 	0.058603 	4539 	0.056496
34.47 	0.064024 	4592 	0.063131
34.51 	0.056014 	4606 	0.054361
34.55 	0.058798 	4643 	0.057915
34.59 	0.059679 	4675 	0.058406
34.63 	0.055202 	4710 	0.054331
34.67 	0.058216 	4741 	0.057104
34.71 	0.060218 	4766 	0.059092
34.75 	0.058860 	4808 	0.057398
34.79 	0.058250 	4824 	0.057765
34.83 	0.057589 	4862 	0.057108
34.87 	0.058546 	4868 	0.057463
34.91 	0.058583 	4882 	0.057623
34.95 	0.056033 	4890 	0.055074
34.99 	0.052481 	4897 	0.051524
35.03 	0.059680 	4943 	0.058851
35.07 	0.056883 	4940 	0.055341
35.11 	0.057813 	4947 	0.057102
35.15 	0.058335 	4937 	0.057386
35.19 	0.052003 	4942 	0.050581
35.23 	0.060465 	4945 	0.059517
35.27 	0.058205 	4948 	0.056528
35.31 	0.058180 	4933 	0.057467
35.35 	0.060907 	4942 	0.059958
35.39 	0.060870 	4945 	0.059803
35.43 	0.058788 	4933 	0.058194
35.47 	0.054147 	4931 	0.053434
35.51 	0.059886 	4926 	0.058935
35.55 	0.060061 	4945 	0.058995
35.59 	0.053185 	4945 	0.052356
35.63 	0.050172 	4943 	0.049342
35.67 	0.058478 	4942 	0.057274
35.71 	0.061373 	4937 	0.059712
35.75 	0.055567 	4931 	0.054359
35.79 	0.060016 	4932 	0.059066
35.83 	0.060857 	4946 	0.059318
35.87 	0.061345 	4923 	0.060512
35.91 	0.054191 	4927 	0.053597
35.95 	0.061826 	4917 	0.060397
35.99 	0.060741 	4939 	0.059436
36.03 	0.056443 	4943 	0.055495
36.07 	0.058109 	4939 	0.057279
36.11 	0.061270 	4929 	0.059706
36.15 	0.054262 	4939 	0.053313
36.19 	0.052834 	4940 	0.051866
36.23 	0.049848 	4935 	0.049373
36.27 	0.056853 	4925 	0.056001
36.31 	0.056615 	4928 	0.054832
36.35 	0.060053 	4929 	0.059221
36.39 	0.052835 	4921 	0.051763
36.43 	0.054383 	4928 	0.053908
36.47 	0.055308 	4936 	0.054359
36.51 	0.056963 	4933 	0.056251
36.55 	0.059062 	4927 	0.057873
36.59 	0.057097 	4939 	0.055673
36.63 	0.053944 	4931 	0.053113
36.67 	0.059229 	4930 	0.057447
36.71 	0.054460 	4921 	0.054103
36.75 	0.054612 	4944 	0.053782
36.79 	0.055070 	4921 	0.054832
36.83 	0.055748 	4915 	0.054913
36.87 	0.056432 	4944 	0.055603
36.91 	0.055050 	4941 	0.054220
36.95 	0.052909 	4933 	0.051603
36.99 	0.058156 	4935 	0.057444
37.03 	0.054021 	4924 	0.053188
37.07 	0.058156 	4935 	0.056494
37.11 	0.054103 	4935 	0.053510
37.15 	0.055816 	4909 	0.054981
37.19 	0.047513 	4925 	0.046661
37.23 	0.057340 	4918 	0.056864
37.27 	0.054352 	4894 	0.053036
37.31 	0.049443 	4935 	0.048849
37.35 	0.048805 	4938 	0.048093
37.39 	0.056581 	4931 	0.055749
37.43 	0.058597 	4932 	0.058122
37.47 	0.054981 	4929 	0.053911
37.51 	0.049260 	4933 	0.048766
37.55 	0.054970 	4930 	0.054019
37.59 	0.048016 	4915 	0.047063
37.63 	0.051840 	4919 	0.051244
37.67 	0.053222 	4904 	0.052625
37.71 	0.055184 	4929 	0.054708
37.75 	0.050000 	4940 	0.049763
37.79 	0.051116 	4930 	0.050284
37.83 	0.055081 	4920 	0.054367
37.87 	0.053047 	4939 	0.052454
37.91 	0.055984 	4930 	0.055508
37.95 	0.051412 	4921 	0.050698
37.99 	0.053339 	4912 	0.052385
38.03 	0.052760 	4909 	0.052402
38.07 	0.049094 	4909 	0.048497
38.11 	0.049848 	4935 	0.049373
38.15 	0.053477 	4918 	0.052762
38.19 	0.045639 	4930 	0.044570
38.23 	0.051235 	4938 	0.050405
38.27 	0.061258 	4930 	0.060426
38.31 	0.054597 	4927 	0.054359
38.35 	0.052557 	4928 	0.052200
38.39 	0.058464 	4909 	0.057629
38.43 	0.065500 	4916 	0.064547
38.47 	0.064805 	4907 	0.063970
38.51 	0.070357 	4932 	0.068813
38.55 	0.065032 	4936 	0.063490
38.59 	0.063566 	4924 	0.062496
38.63 	0.068237 	4924 	0.066929
38.67 	0.057525 	4937 	0.056319
38.71 	0.055037 	4924 	0.054442
38.75 	0.061295 	4927 	0.059868
38.79 	0.055128 	4934 	0.053940
38.83 	0.058345 	4919 	0.057631
38.87 	0.043576 	4911 	0.043337
38.91 	0.052417 	4903 	0.051820
38.95 	0.048800 	4918 	0.048086
38.99 	0.055499 	4937 	0.054194
39.03 	0.050872 	4934 	0.049922
39.07 	0.049959 	4924 	0.048889
39.11 	0.041777 	4931 	0.041420
39.15 	0.048627 	4915 	0.047554
39.19 	0.042506 	4917 	0.042029
39.23 	0.041218 	4925 	0.040505
39.27 	0.045418 	4910 	0.044821
39.31 	0.047093 	4884 	0.046373
39.35 	0.045998 	4935 	0.044811
39.39 	0.046054 	4929 	0.045084
39.43 	0.045814 	4933 	0.045339
39.47 	0.042860 	4923 	0.041789
39.51 	0.044882 	4924 	0.044287
39.55 	0.048384 	4919 	0.047431
39.59 	0.039902 	4912 	0.039545
39.63 	0.046932 	4922 	0.046337
39.67 	0.041319 	4913 	0.040246
39.71 	0.045352 	4895 	0.044515
39.75 	0.045657 	4928 	0.045539
39.79 	0.043240 	4926 	0.042883
39.83 	0.044386 	4934 	0.043555
39.87 	0.047513 	4925 	0.046542
39.91 	0.043681 	4922 	0.043067
39.95 	0.044354 	4915 	0.043381
39.99 	0.046229 	4932 	0.045635
40.03 	0.042614 	4928 	0.042376
40.07 	0.046923 	4923 	0.046090
40.11 	0.038039 	4916 	0.037682
40.15 	0.044169 	4913 	0.043572
40.19 	0.043214 	4929 	0.042382
40.23 	0.041768 	4932 	0.040818
40.27 	0.041726 	4937 	0.041370
40.31 	0.044746 	4939 	0.044271
40.35 	0.040659 	4919 	0.040301
40.39 	0.041168 	4931 	0.040931
40.43 	0.045510 	4922 	0.044677
40.47 	0.042497 	4918 	0.041524
40.51 	0.042869 	4922 	0.042155
40.55 	0.043602 	4908 	0.043125
40.59 	0.046790 	4937 	0.045603
40.63 	0.042191 	4930 	0.041834
40.67 	0.045418 	4932 	0.045061
40.71 	0.044201 	4932 	0.043726
40.75 	0.048874 	4931 	0.048518
40.79 	0.038383 	4924 	0.037908
40.83 	0.045455 	4928 	0.044860
40.87 	0.048295 	4928 	0.047226
40.91 	0.037782 	4923 	0.037068
40.95 	0.039080 	4913 	0.038842
40.99 	0.043867 	4924 	0.043629
41.03 	0.043833 	4905 	0.043236
41.07 	0.043408 	4930 	0.043051
41.11 	0.045187 	4935 	0.044594
41.15 	0.048978 	4941 	0.048622
41.19 	0.040974 	4930 	0.040617
41.23 	0.044138 	4939 	0.043427
41.27 	0.041168 	4931 	0.040693
41.31 	0.038922 	4933 	0.038565
41.35 	0.044755 	4938 	0.043450
41.39 	0.042368 	4933 	0.041536
41.43 	0.039562 	4929 	0.039205
41.47 	0.042631 	4926 	0.042274
41.51 	0.040283 	4940 	0.039434
41.55 	0.035461 	4935 	0.035461
41.59 	0.039530 	4933 	0.039292
41.63 	0.039287 	4938 	0.038813
41.67 	0.040081 	4940 	0.039725
41.71 	0.041548 	4934 	0.041311
41.75 	0.039156 	4929 	0.038681
41.79 	0.043689 	4944 	0.042978
41.83 	0.036323 	4928 	0.035966
41.87 	0.040729 	4935 	0.040136
41.91 	0.040924 	4936 	0.040568
41.95 	0.041574 	4931 	0.040841
41.99 	0.042202 	4905 	0.041844
42.03 	0.039279 	4939 	0.038923
42.07 	0.035852 	4937 	0.035496
42.11 	0.037209 	4945 	0.036617
42.15 	0.037262 	4938 	0.036788
42.19 	0.037490 	4908 	0.037251
42.23 	0.033320 	4892 	0.033080
42.27 	0.041444 	4874 	0.041204
42.31 	0.035015 	4855 	0.034533
42.35 	0.043200 	4838 	0.042594
42.39 	0.041216 	4804 	0.040362
42.43 	0.040067 	4792 	0.039945
42.47 	0.043232 	4765 	0.042740
42.51 	0.036686 	4743 	0.036315
42.55 	0.037808 	4708 	0.037186
42.59 	0.039332 	4729 	0.039084
42.63 	0.043746 	4709 	0.043497
42.67 	0.036934 	4684 	0.036434
42.71 	0.039674 	4663 	0.039046
42.75 	0.043318 	4617 	0.043064
42.79 	0.038629 	4582 	0.038374
42.83 	0.036817 	4536 	0.036171
42.87 	0.040009 	4499 	0.039748
42.91 	0.039048 	4456 	0.038786
42.95 	0.035553 	4416 	0.035287
42.99 	0.041277 	4385 	0.040320
43.03 	0.036234 	4333 	0.035963
43.07 	0.039804 	4296 	0.039395
43.11 	0.037368 	4255 	0.037092
43.15 	0.042796 	4206 	0.042378
43.19 	0.041249 	4194 	0.040132
43.23 	0.038517 	4154 	0.038235
43.27 	0.040438 	4105 	0.040153
43.31 	0.037754 	4079 	0.037180
43.35 	0.041667 	4032 	0.041376
43.39 	0.042479 	4002 	0.042186
43.43 	0.035859 	3960 	0.035563
43.47 	0.039276 	3921 	0.038977
43.51 	0.040495 	3877 	0.039740
43.55 	0.040823 	2964 	0.040230
43.59 	0.034364 	1746 	0.033693
43.63 	0.035964 	1001 	0.035964
43.67 	0.029880 	502 	0.028714
43.71 	0.033473 	239 	0.033473
43.75 	0.000000 	16 	0.000000