File: Example_Data/25SC_s1_0036.003.dat
#F C:\frames\spec\25SC_s1_0036.003
#C title =s:36 frm:3 25SC_s1
#C wavelength =0.15406

#S 1  fr_average C:\frames\spec\25SC_s1_0036.003 C:\win32app\speccom\mask.axs chi 0 180 0 360 0.02
#C 2 theta =0.000000 to 180 deg
#C   q   =0.000000 to 81.568 nm^-1
#C  chi  =0.000000 to 360 deg
#C collumns:
#C  1 position (2theta or chi in degrees)
#C  2 average intensity (sum of all counts in the region divided with number of pixels)
#C  3 Number of pixels in region)
#C  4 error (sum of sqrt(intensity) for all pixels divided by number)
#N 4
#L TTh  Int  N_pix  Err
32.99 	0.049180 	61 	0.049180
33.03 	0.063264 	1391 	0.061158
33.07 	0.059024 	2050 	0.057596
33.11 	0.063978 	2579 	0.063070
33.15 	0.059020 	2999 	0.057652
33.19 	0.052065 	3342 	0.051364
33.23 	0.052796 	3523 	0.051632
33.27 	0.060331 	3630 	0.059846
33.31 	0.059836 	3660 	0.058876
33.35 	0.062534 	3694 	0.061398
33.39 	0.054975 	3729 	0.054189
33.43 	0.054241 	3761 	0.053462
33.47 	0.062928 	3798 	0.061823
33.51 	0.064220 	3815 	0.063606
33.55 	0.060890 	3843 	0.059975
33.59 	0.060825 	3880 	0.059768
33.63 	0.065578 	3919 	0.064382
33.67 	0.054881 	3954 	0.053055
33.71 	0.056352 	3975 	0.055763
33.75 	0.058765 	3999 	0.058325
33.79 	0.057164 	4041 	0.056729
33.83 	0.052840 	4050 	0.052550
33.87 	0.062029 	4111 	0.059891
33.91 	0.057604 	4149 	0.056475
33.95 	0.060990 	4181 	0.060009
33.99 	0.056667 	4200 	0.055690
34.03 	0.058435 	4244 	0.057607
34.07 	0.058107 	4268 	0.057421
34.11 	0.057880 	4302 	0.056927
34.15 	0.061879 	4331 	0.060121
34.19 	0.056855 	4362 	0.056452
34.23 	0.047803 	4393 	0.047537
34.27 	0.064903 	4422 	0.062894
34.31 	0.059892 	4458 	0.058447
34.35 	0.056869 	4484 	0.055693
34.39 	0.053976 	4502 	0.053065
34.43 	0.053536 	4539 	0.052504
34.47 	0.062064 	4592 	0.060151
34.51 	0.046461 	4606 	0.046207
34.55 	0.061813 	4643 	0.060657
34.59 	0.057754 	4675 	0.056626
34.63 	0.057325 	4710 	0.056579
34.67 	0.060958 	4741 	0.059969
34.71 	0.050986 	4766 	0.050249
34.75 	0.054908 	4808 	0.054177
34.79 	0.056592 	4824 	0.056106
34.83 	0.058206 	4862 	0.057002
34.87 	0.058135 	4868 	0.057032
34.91 	0.056944 	4882 	0.055984
34.95 	0.056851 	4890 	0.056132
34.99 	0.054319 	4897 	0.053482
35.03 	0.058264 	4943 	0.057316
35.07 	0.054251 	4940 	0.053184
35.11 	0.049727 	4947 	0.049135
35.15 	0.053474 	4937 	0.052643
35.19 	0.053622 	4942 	0.052081
35.23 	0.056421 	4945 	0.054368
35.27 	0.062854 	4948 	0.062025
35.31 	0.055950 	4933 	0.055356
35.35 	0.053217 	4942 	0.052131
35.39 	0.055005 	4945 	0.054176
35.43 	0.057774 	4933 	0.056705
35.47 	0.051105 	4931 	0.049917
35.51 	0.051157 	4926 	0.050325
35.55 	0.056825 	4945 	0.055996
35.59 	0.047523 	4945 	0.046575
35.63 	0.060490 	4943 	0.059660
35.67 	0.058074 	4942 	0.057106
35.71 	0.048207 	4937 	0.047733
35.75 	0.058812 	4931 	0.058099
35.79 	0.054339 	4932 	0.053013
35.83 	0.055196 	4946 	0.053893
35.87 	0.047938 	4923 	0.047343
35.91 	0.051350 	4927 	0.049804
35.95 	0.056945 	4917 	0.056469
35.99 	0.047378 	4939 	0.046548
36.03 	0.054218 	4943 	0.053152
36.07 	0.057097 	4939 	0.056504
36.11 	0.053561 	4929 	0.052491
36.15 	0.053452 	4939 	0.052147
36.19 	0.057490 	4940 	0.056403
36.23 	0.051469 	4935 	0.050757
36.27 	0.050964 	4925 	0.050013
36.31 	0.056209 	4928 	0.055021
36.35 	0.056604 	4929 	0.056010
36.39 	0.051209 	4921 	0.050376
36.43 	0.053166 	4928 	0.052195
36.47 	0.054903 	4936 	0.054309
36.51 	0.056355 	4933 	0.055049
36.55 	0.053785 	4927 	0.052596
36.59 	0.053047 	4939 	0.052336
36.63 	0.052525 	4931 	0.051812
36.67 	0.050101 	4930 	0.049507
36.71 	0.053648 	4921 	0.053291
36.75 	0.056230 	4944 	0.055045
36.79 	0.053038 	4921 	0.052443
36.83 	0.054527 	4915 	0.053693
36.87 	0.053196 	4944 	0.052248
36.91 	0.050395 	4941 	0.049683
36.95 	0.052098 	4933 	0.051267
36.99 	0.048430 	4935 	0.047717
37.03 	0.050772 	4924 	0.050058
37.07 	0.050051 	4935 	0.049576
37.11 	0.048632 	4935 	0.047683
37.15 	0.052353 	4909 	0.051995
37.19 	0.050964 	4925 	0.050964
37.23 	0.049410 	4918 	0.048457
37.27 	0.049857 	4894 	0.048899
37.31 	0.053698 	4935 	0.053342
37.35 	0.042122 	4938 	0.042004
37.39 	0.052930 	4931 	0.051861
37.43 	0.046431 	4932 	0.046313
37.47 	0.046663 	4929 	0.045950
37.51 	0.051693 	4933 	0.050980
37.55 	0.044625 	4930 	0.043793
37.59 	0.049034 	4915 	0.048318
37.63 	0.051230 	4919 	0.050396
37.67 	0.055669 	4904 	0.054713
37.71 	0.048894 	4929 	0.048300
37.75 	0.049798 	4940 	0.049086
37.79 	0.053144 	4930 	0.052193
37.83 	0.051016 	4920 	0.050183
37.87 	0.048188 	4939 	0.047358
37.91 	0.051116 	4930 	0.050522
37.95 	0.057305 	4921 	0.056115
37.99 	0.054764 	4912 	0.053333
38.03 	0.050723 	4909 	0.049888
38.07 	0.049094 	4909 	0.048736
38.11 	0.047214 	4935 	0.046383
38.15 	0.057137 	4918 	0.056541
38.19 	0.056998 	4930 	0.055929
38.23 	0.052855 	4938 	0.051551
38.27 	0.049696 	4930 	0.048508
38.31 	0.055815 	4927 	0.054864
38.35 	0.061282 	4928 	0.060213
38.39 	0.061723 	4909 	0.061246
38.43 	0.057160 	4916 	0.056326
38.47 	0.058895 	4907 	0.058179
38.51 	0.066707 	4932 	0.065282
38.55 	0.056929 	4936 	0.056098
38.59 	0.055443 	4924 	0.053777
38.63 	0.055240 	4924 	0.053693
38.67 	0.054487 	4937 	0.053775
38.71 	0.056864 	4924 	0.055675
38.75 	0.050538 	4927 	0.049943
38.79 	0.055330 	4934 	0.054737
38.83 	0.047774 	4919 	0.046940
38.87 	0.051110 	4911 	0.050275
38.91 	0.046094 	4903 	0.045258
38.95 	0.046157 	4918 	0.045561
38.99 	0.048005 	4937 	0.047412
39.03 	0.047629 	4934 	0.046679
39.07 	0.047522 	4924 	0.047165
39.11 	0.045630 	4931 	0.044798
39.15 	0.046592 	4915 	0.045639
39.19 	0.045353 	4917 	0.045115
39.23 	0.043249 	4925 	0.043011
39.27 	0.049084 	4910 	0.048487
39.31 	0.050983 	4884 	0.050503
39.35 	0.044985 	4935 	0.043897
39.39 	0.045648 	4929 	0.044321
39.43 	0.046422 	4933 	0.046066
39.47 	0.051188 	4923 	0.050474
39.51 	0.046507 	4924 	0.046150
39.55 	0.046554 	4919 	0.045721
39.59 	0.043974 	4912 	0.043258
39.63 	0.041853 	4922 	0.041615
39.67 	0.050885 	4913 	0.050170
39.71 	0.046170 	4895 	0.045332
39.75 	0.047078 	4928 	0.046365
39.79 	0.047503 	4926 	0.046790
39.83 	0.046615 	4934 	0.045784
39.87 	0.051168 	4925 	0.050930
39.91 	0.050589 	4922 	0.049994
39.95 	0.043540 	4915 	0.043421
39.99 	0.046634 	4932 	0.045783
40.03 	0.049716 	4928 	0.048508
40.07 	0.041438 	4923 	0.040724
40.11 	0.046379 	4916 	0.045903
40.15 	0.043354 	4913 	0.042381
40.19 	0.042402 	4929 	0.041808
40.23 	0.044607 	4932 	0.044132
40.27 	0.048410 	4937 	0.047461
40.31 	0.048188 	4939 	0.047002
40.35 	0.045131 	4919 	0.044536
40.39 	0.044616 	4931 	0.043784
40.43 	0.045510 	4922 	0.044677
40.47 	0.040464 	4918 	0.039491
40.51 	0.043072 	4922 	0.042715
40.55 	0.047066 	4908 	0.046589
40.59 	0.039295 	4937 	0.038583
40.63 	0.044422 	4930 	0.044184
40.67 	0.049473 	4932 	0.048523
40.71 	0.041768 	4932 	0.041412
40.75 	0.047658 	4931 	0.046707
40.79 	0.043461 	4924 	0.042985
40.83 	0.043019 	4928 	0.042901
40.87 	0.041599 	4928 	0.041005
40.91 	0.045704 	4923 	0.044970
40.95 	0.039080 	4913 	0.037968
40.99 	0.043054 	4924 	0.042816
41.03 	0.045464 	4905 	0.044966
41.07 	0.045639 	4930 	0.045164
41.11 	0.041337 	4935 	0.040744
41.15 	0.041894 	4941 	0.041420
41.19 	0.042191 	4930 	0.041597
41.23 	0.042316 	4939 	0.041842
41.27 	0.047049 	4931 	0.046455
41.31 	0.048652 	4933 	0.047939
41.35 	0.047388 	4938 	0.046557
41.39 	0.044598 	4933 	0.044123
41.43 	0.041185 	4929 	0.040828
41.47 	0.042631 	4926 	0.042512
41.51 	0.045344 	4940 	0.044514
41.55 	0.043161 	4935 	0.042568
41.59 	0.048044 	4933 	0.047806
41.63 	0.045565 	4938 	0.044972
41.67 	0.037045 	4940 	0.036807
41.71 	0.038711 	4934 	0.037999
41.75 	0.044228 	4929 	0.043753
41.79 	0.048341 	4944 	0.046920
41.83 	0.044643 	4928 	0.044167
41.87 	0.045998 	4935 	0.045286
41.91 	0.043355 	4936 	0.042267
41.95 	0.037518 	4931 	0.037043
41.99 	0.039348 	4905 	0.038989
42.03 	0.042316 	4939 	0.041486
42.07 	0.040916 	4937 	0.040441
42.11 	0.043883 	4945 	0.043527
42.15 	0.039085 	4938 	0.038847
42.19 	0.038916 	4908 	0.038081
42.23 	0.042723 	4892 	0.042364
42.27 	0.039393 	4874 	0.039273
42.31 	0.041607 	4855 	0.041365
42.35 	0.041546 	4838 	0.040941
42.39 	0.040383 	4804 	0.039773
42.43 	0.042988 	4792 	0.042255
42.47 	0.037356 	4765 	0.036618
42.51 	0.041113 	4743 	0.040866
42.55 	0.037808 	4708 	0.037559
42.59 	0.039755 	4729 	0.039383
42.63 	0.039074 	4709 	0.038701
42.67 	0.036080 	4684 	0.035955
42.71 	0.044821 	4663 	0.043816
42.75 	0.046134 	4617 	0.045458
42.79 	0.041903 	4582 	0.041008
42.83 	0.041667 	4536 	0.041408
42.87 	0.041120 	4499 	0.040860
42.91 	0.038600 	4456 	0.038074
42.95 	0.042346 	4416 	0.041417
42.99 	0.036944 	4385 	0.036276
43.03 	0.033695 	4333 	0.033019
43.07 	0.040736 	4296 	0.040326
43.11 	0.034078 	4255 	0.033665
43.15 	0.038754 	4206 	0.038476
43.19 	0.038865 	4194 	0.038167
43.23 	0.040924 	4154 	0.040783
43.27 	0.041169 	4105 	0.040741
43.31 	0.032361 	4079 	0.032217
43.35 	0.037946 	4032 	0.037511
43.39 	0.045977 	4002 	0.045538
43.43 	0.038384 	3960 	0.038088
43.47 	0.044887 	3921 	0.044289
43.51 	0.039464 	3877 	0.038708
43.55 	0.043860 	2964 	0.043037
43.59 	0.042955 	1746 	0.042284
43.63 	0.031968 	1001 	0.030798
43.67 	0.013944 	502 	0.013944
43.71 	0.025105 	239 	0.025105
43.75 	0.000000 	16 	0.000000