File: Example_Data/25SC_s1_0025.002.dat
#F C:\frames\spec\25SC_s1_0025.002
#C title =s:25 frm:2 25SC_s1
#C wavelength =0.15406

#S 1  fr_average C:\frames\spec\25SC_s1_0025.002 C:\win32app\speccom\mask.axs chi 0 180 0 360 0.02
#C 2 theta =0.000000 to 180 deg
#C   q   =0.000000 to 81.568 nm^-1
#C  chi  =0.000000 to 360 deg
#C collumns:
#C  1 position (2theta or chi in degrees)
#C  2 average intensity (sum of all counts in the region divided with number of pixels)
#C  3 Number of pixels in region)
#C  4 error (sum of sqrt(intensity) for all pixels divided by number)
#N 4
#L TTh  Int  N_pix  Err
32.99 	0.049180 	61 	0.049180
33.03 	0.062545 	1391 	0.060439
33.07 	0.065366 	2050 	0.063651
33.11 	0.062040 	2579 	0.060450
33.15 	0.055352 	2999 	0.053984
33.19 	0.056254 	3342 	0.055553
33.23 	0.056202 	3523 	0.055371
33.27 	0.056474 	3630 	0.055183
33.31 	0.060656 	3660 	0.060176
33.35 	0.053059 	3694 	0.052742
33.39 	0.063020 	3729 	0.061449
33.43 	0.062483 	3761 	0.061835
33.47 	0.059242 	3798 	0.058316
33.51 	0.060813 	3815 	0.058459
33.55 	0.060109 	3843 	0.059652
33.59 	0.053093 	3880 	0.051558
33.63 	0.062516 	3919 	0.060810
33.67 	0.063227 	3954 	0.062018
33.71 	0.056101 	3975 	0.055364
33.75 	0.062766 	3999 	0.061301
33.79 	0.063846 	4041 	0.062541
33.83 	0.063704 	4050 	0.061510
33.87 	0.057164 	4111 	0.056024
33.91 	0.055194 	4149 	0.053900
33.95 	0.058359 	4181 	0.057379
33.99 	0.056429 	4200 	0.055452
34.03 	0.058907 	4244 	0.057664
34.07 	0.050843 	4268 	0.050409
34.11 	0.057415 	4302 	0.056462
34.15 	0.054029 	4331 	0.053488
34.19 	0.048602 	4362 	0.048064
34.23 	0.059413 	4393 	0.058746
34.27 	0.060606 	4422 	0.059414
34.31 	0.062360 	4458 	0.060914
34.35 	0.056646 	4484 	0.055601
34.39 	0.053532 	4502 	0.052621
34.43 	0.055078 	4539 	0.054691
34.47 	0.058362 	4592 	0.057852
34.51 	0.055145 	4606 	0.054510
34.55 	0.058583 	4643 	0.057826
34.59 	0.062888 	4675 	0.062512
34.63 	0.056051 	4710 	0.055553
34.67 	0.058005 	4741 	0.057140
34.71 	0.059589 	4766 	0.058237
34.75 	0.051997 	4808 	0.050778
34.79 	0.058458 	4824 	0.056879
34.83 	0.053476 	4862 	0.052633
34.87 	0.056286 	4868 	0.055805
34.91 	0.056944 	4882 	0.056104
34.95 	0.064826 	4890 	0.063149
34.99 	0.054727 	4897 	0.053890
35.03 	0.057860 	4943 	0.056200
35.07 	0.054453 	4940 	0.053149
35.11 	0.052355 	4947 	0.051763
35.15 	0.064209 	4937 	0.063122
35.19 	0.058681 	4942 	0.057732
35.23 	0.054196 	4945 	0.053367
35.27 	0.058610 	4948 	0.057426
35.31 	0.058788 	4933 	0.058075
35.35 	0.052408 	4942 	0.051815
35.39 	0.052781 	4945 	0.052188
35.43 	0.053923 	4933 	0.053329
35.47 	0.063273 	4931 	0.062442
35.51 	0.058871 	4926 	0.057801
35.55 	0.052578 	4945 	0.051631
35.59 	0.055207 	4945 	0.054497
35.63 	0.057860 	4943 	0.057030
35.67 	0.055848 	4942 	0.054188
35.71 	0.058538 	4937 	0.057944
35.75 	0.058609 	4931 	0.058015
35.79 	0.053933 	4932 	0.052746
35.83 	0.062273 	4946 	0.060851
35.87 	0.053220 	4923 	0.052625
35.91 	0.058047 	4927 	0.056958
35.95 	0.057555 	4917 	0.056602
35.99 	0.060336 	4939 	0.059131
36.03 	0.053409 	4943 	0.052579
36.07 	0.057502 	4939 	0.056652
36.11 	0.053763 	4929 	0.052932
36.15 	0.063981 	4939 	0.062439
36.19 	0.054453 	4940 	0.053623
36.23 	0.054103 	4935 	0.053035
36.27 	0.059898 	4925 	0.058947
36.31 	0.062500 	4928 	0.061668
36.35 	0.051329 	4929 	0.050497
36.39 	0.059541 	4921 	0.059065
36.43 	0.051339 	4928 	0.050507
36.47 	0.057131 	4936 	0.056182
36.51 	0.055544 	4933 	0.054832
36.55 	0.059062 	4927 	0.057992
36.59 	0.057704 	4939 	0.056399
36.63 	0.051308 	4931 	0.050239
36.67 	0.053753 	4930 	0.052802
36.71 	0.059947 	4921 	0.058876
36.75 	0.051982 	4944 	0.051508
36.79 	0.054867 	4921 	0.054272
36.83 	0.046999 	4915 	0.046522
36.87 	0.055623 	4944 	0.054794
36.91 	0.055050 	4941 	0.054457
36.95 	0.053923 	4933 	0.052616
36.99 	0.056130 	4935 	0.054804
37.03 	0.055443 	4924 	0.055086
37.07 	0.056332 	4935 	0.055501
37.11 	0.057143 	4935 	0.056312
37.15 	0.060705 	4909 	0.059392
37.19 	0.052792 	4925 	0.052078
37.23 	0.052054 	4918 	0.051577
37.27 	0.047201 	4894 	0.046602
37.31 	0.053495 	4935 	0.051952
37.35 	0.053665 	4938 	0.052598
37.39 	0.050294 	4931 	0.049938
37.43 	0.054542 	4932 	0.053473
37.47 	0.050314 	4929 	0.049720
37.51 	0.053517 	4933 	0.052923
37.55 	0.052738 	4930 	0.051788
37.59 	0.053510 	4915 	0.051941
37.63 	0.052653 	4919 	0.052296
37.67 	0.054649 	4904 	0.053813
37.71 	0.052343 	4929 	0.051155
37.75 	0.050405 	4940 	0.049575
37.79 	0.052333 	4930 	0.051620
37.83 	0.046545 	4920 	0.046068
37.87 	0.050213 	4939 	0.049501
37.91 	0.051724 	4930 	0.051011
37.95 	0.052632 	4921 	0.051560
37.99 	0.055782 	4912 	0.055066
38.03 	0.048075 	4909 	0.047240
38.07 	0.049908 	4909 	0.049073
38.11 	0.051064 	4935 	0.050114
38.15 	0.052257 	4918 	0.051285
38.19 	0.055172 	4930 	0.053865
38.23 	0.050425 	4938 	0.049714
38.27 	0.060243 	4930 	0.058818
38.31 	0.053379 	4927 	0.052309
38.35 	0.060471 	4928 	0.058807
38.39 	0.059483 	4909 	0.057573
38.43 	0.056347 	4916 	0.056108
38.47 	0.065621 	4907 	0.064666
38.51 	0.070762 	4932 	0.069456
38.55 	0.059968 	4936 	0.058662
38.59 	0.058489 	4924 	0.057637
38.63 	0.055646 	4924 	0.054932
38.67 	0.061373 	4937 	0.060068
38.71 	0.056661 	4924 	0.055828
38.75 	0.053176 	4927 	0.052206
38.79 	0.050061 	4934 	0.049467
38.83 	0.050010 	4919 	0.049177
38.87 	0.052535 	4911 	0.051700
38.91 	0.048950 	4903 	0.048352
38.95 	0.048800 	4918 	0.047967
38.99 	0.049018 	4937 	0.048306
39.03 	0.047223 	4934 	0.046630
39.07 	0.043258 	4924 	0.043139
39.11 	0.055364 	4931 	0.053938
39.15 	0.051068 	4915 	0.050234
39.19 	0.049827 	4917 	0.049351
39.23 	0.048325 	4925 	0.047730
39.27 	0.047658 	4910 	0.046703
39.31 	0.045250 	4884 	0.044650
39.35 	0.043364 	4935 	0.042889
39.39 	0.047677 	4929 	0.047202
39.43 	0.047638 	4933 	0.046926
39.47 	0.048141 	4923 	0.047408
39.51 	0.043664 	4924 	0.043307
39.55 	0.043708 	4919 	0.043093
39.59 	0.044788 	4912 	0.044311
39.63 	0.046526 	4922 	0.045574
39.67 	0.042337 	4913 	0.041264
39.71 	0.049030 	4895 	0.048790
39.75 	0.045252 	4928 	0.045014
39.79 	0.047300 	4926 	0.046448
39.83 	0.044994 	4934 	0.044282
39.87 	0.043046 	4925 	0.042451
39.91 	0.042666 	4922 	0.042309
39.95 	0.044354 	4915 	0.043381
39.99 	0.047040 	4932 	0.046565
40.03 	0.044440 	4928 	0.043964
40.07 	0.043266 	4923 	0.042433
40.11 	0.045566 	4916 	0.045208
40.15 	0.043761 	4913 	0.043165
40.19 	0.043417 	4929 	0.042941
40.23 	0.040146 	4932 	0.039908
40.27 	0.040510 	4937 	0.040273
40.31 	0.042924 	4939 	0.042568
40.35 	0.048181 	4919 	0.047823
40.39 	0.045021 	4931 	0.044546
40.43 	0.043681 	4922 	0.042491
40.47 	0.045344 	4918 	0.044986
40.51 	0.041447 	4922 	0.040732
40.55 	0.038101 	4908 	0.037862
40.59 	0.043144 	4937 	0.042906
40.63 	0.038945 	4930 	0.038708
40.67 	0.045823 	4932 	0.045348
40.71 	0.041971 	4932 	0.041377
40.75 	0.043399 	4931 	0.042904
40.79 	0.047929 	4924 	0.047691
40.83 	0.043831 	4928 	0.043118
40.87 	0.039773 	4928 	0.039416
40.91 	0.047735 	4923 	0.047259
40.95 	0.044372 	4913 	0.044134
40.99 	0.045695 	4924 	0.044981
41.03 	0.039959 	4905 	0.039243
41.07 	0.038742 	4930 	0.038267
41.11 	0.036677 	4935 	0.036321
41.15 	0.043311 	4941 	0.042955
41.19 	0.035903 	4930 	0.035427
41.23 	0.039482 	4939 	0.039244
41.27 	0.045427 	4931 	0.044833
41.31 	0.045408 	4933 	0.044933
41.35 	0.044147 	4938 	0.043673
41.39 	0.040746 	4933 	0.040390
41.43 	0.042402 	4929 	0.041689
41.47 	0.044458 	4926 	0.044101
41.51 	0.038866 	4940 	0.038155
41.55 	0.040932 	4935 	0.040695
41.59 	0.037705 	4933 	0.036993
41.63 	0.043337 	4938 	0.042863
41.67 	0.043522 	4940 	0.042811
41.71 	0.041143 	4934 	0.040787
41.75 	0.044634 	4929 	0.044040
41.79 	0.039037 	4944 	0.038563
41.83 	0.040179 	4928 	0.039703
41.87 	0.037082 	4935 	0.036726
41.91 	0.034238 	4936 	0.034120
41.95 	0.037721 	4931 	0.037245
41.99 	0.040979 	4905 	0.040620
42.03 	0.041101 	4939 	0.040746
42.07 	0.043751 	4937 	0.042921
42.11 	0.035592 	4945 	0.035118
42.15 	0.034427 	4938 	0.034190
42.19 	0.035860 	4908 	0.035005
42.23 	0.033320 	4892 	0.033080
42.27 	0.038982 	4874 	0.038622
42.31 	0.041401 	4855 	0.041039
42.35 	0.036585 	4838 	0.036222
42.39 	0.043505 	4804 	0.042896
42.43 	0.039858 	4792 	0.039614
42.47 	0.043652 	4765 	0.042771
42.51 	0.035421 	4743 	0.035297
42.55 	0.042056 	4708 	0.041683
42.59 	0.039966 	4729 	0.039595
42.63 	0.037800 	4709 	0.036929
42.67 	0.037148 	4684 	0.036898
42.71 	0.040103 	4663 	0.039852
42.75 	0.035521 	4617 	0.035267
42.79 	0.036447 	4582 	0.035936
42.83 	0.037919 	4536 	0.037402
42.87 	0.042009 	4499 	0.041619
42.91 	0.039273 	4456 	0.039010
42.95 	0.038949 	4416 	0.038551
42.99 	0.037400 	4385 	0.037133
43.03 	0.035080 	4333 	0.034674
43.07 	0.036313 	4296 	0.035767
43.11 	0.041363 	4255 	0.040950
43.15 	0.040656 	4206 	0.040099
43.19 	0.037911 	4194 	0.037772
43.23 	0.042850 	4154 	0.042709
43.27 	0.034348 	4105 	0.034063
43.31 	0.034812 	4079 	0.034525
43.35 	0.035714 	4032 	0.034697
43.39 	0.035482 	4002 	0.035336
43.43 	0.040152 	3960 	0.039412
43.47 	0.041316 	3921 	0.040868
43.51 	0.044880 	3877 	0.044729
43.55 	0.036775 	2964 	0.036379
43.59 	0.040092 	1746 	0.039421
43.63 	0.029970 	1001 	0.029970
43.67 	0.033865 	502 	0.033865
43.71 	0.058577 	239 	0.056126
43.75 	0.062500 	16 	0.062500