File: Example_Data/25SC_s1_0025.004.dat
#F C:\frames\spec\25SC_s1_0025.004
#C title =s:25 frm:4 25SC_s1
#C wavelength =0.15406

#S 1  fr_average C:\frames\spec\25SC_s1_0025.004 C:\win32app\speccom\mask.axs chi 0 180 0 360 0.02
#C 2 theta =0.000000 to 180 deg
#C   q   =0.000000 to 81.568 nm^-1
#C  chi  =0.000000 to 360 deg
#C collumns:
#C  1 position (2theta or chi in degrees)
#C  2 average intensity (sum of all counts in the region divided with number of pixels)
#C  3 Number of pixels in region)
#C  4 error (sum of sqrt(intensity) for all pixels divided by number)
#N 4
#L TTh  Int  N_pix  Err
32.99 	0.032787 	61 	0.032787
33.03 	0.070453 	1391 	0.070032
33.07 	0.053171 	2050 	0.052885
33.11 	0.056223 	2579 	0.055769
33.15 	0.061354 	2999 	0.060963
33.19 	0.059246 	3342 	0.058720
33.23 	0.059892 	3523 	0.058562
33.27 	0.053994 	3630 	0.052542
33.31 	0.054098 	3660 	0.052978
33.35 	0.047645 	3694 	0.047169
33.39 	0.054170 	3729 	0.053385
33.43 	0.059293 	3761 	0.057579
33.47 	0.059242 	3798 	0.058316
33.51 	0.058191 	3815 	0.057731
33.55 	0.054124 	3843 	0.053057
33.59 	0.057216 	3880 	0.056462
33.63 	0.060730 	3919 	0.059982
33.67 	0.064239 	3954 	0.063202
33.71 	0.057862 	3975 	0.056216
33.75 	0.064516 	3999 	0.062758
33.79 	0.060134 	4041 	0.058974
33.83 	0.058519 	4050 	0.057940
33.87 	0.064704 	4111 	0.063565
33.91 	0.060738 	4149 	0.059326
33.95 	0.063143 	4181 	0.061719
33.99 	0.058571 	4200 	0.057874
34.03 	0.057022 	4244 	0.055917
34.07 	0.061153 	4268 	0.059506
34.11 	0.056950 	4302 	0.055861
34.15 	0.065112 	4331 	0.064165
34.19 	0.059147 	4362 	0.058073
34.23 	0.052811 	4393 	0.052145
34.27 	0.063772 	4422 	0.062712
34.31 	0.055406 	4458 	0.054223
34.35 	0.059322 	4484 	0.058016
34.39 	0.054420 	4502 	0.053640
34.43 	0.060586 	4539 	0.059812
34.47 	0.053789 	4592 	0.053024
34.51 	0.056665 	4606 	0.055521
34.55 	0.057075 	4643 	0.056697
34.59 	0.062032 	4675 	0.061030
34.63 	0.065180 	4710 	0.064434
34.67 	0.060536 	4741 	0.059403
34.71 	0.059799 	4766 	0.058815
34.75 	0.057820 	4808 	0.056724
34.79 	0.059494 	4824 	0.057896
34.83 	0.056355 	4862 	0.055151
34.87 	0.057108 	4868 	0.055744
34.91 	0.060426 	4882 	0.059586
34.95 	0.061554 	4890 	0.060596
34.99 	0.058812 	4897 	0.057974
35.03 	0.060692 	4943 	0.059250
35.07 	0.062753 	4940 	0.061093
35.11 	0.057813 	4947 	0.056747
35.15 	0.054892 	4937 	0.054061
35.19 	0.054634 	4942 	0.054160
35.23 	0.054803 	4945 	0.053855
35.27 	0.057195 	4948 	0.056366
35.31 	0.058990 	4933 	0.057427
35.35 	0.062525 	4942 	0.061696
35.39 	0.053994 	4945 	0.053283
35.43 	0.060207 	4933 	0.059257
35.47 	0.058203 	4931 	0.057372
35.51 	0.058059 	4926 	0.056870
35.55 	0.061881 	4945 	0.060341
35.59 	0.060263 	4945 	0.059789
35.63 	0.054016 	4943 	0.052475
35.67 	0.058074 	4942 	0.056869
35.71 	0.063196 	4937 	0.062128
35.75 	0.061854 	4931 	0.060903
35.79 	0.059813 	4932 	0.058606
35.83 	0.061262 	4946 	0.059939
35.87 	0.056673 	4923 	0.055939
35.91 	0.061498 	4927 	0.060071
35.95 	0.053691 	4917 	0.052500
35.99 	0.064386 	4939 	0.063318
36.03 	0.060490 	4943 	0.059404
36.07 	0.060539 	4939 	0.059353
36.11 	0.055184 	4929 	0.054589
36.15 	0.054869 	4939 	0.053921
36.19 	0.056275 	4940 	0.056038
36.23 	0.053293 	4935 	0.052343
36.27 	0.054619 	4925 	0.053906
36.31 	0.058239 	4928 	0.056456
36.35 	0.060459 	4929 	0.059508
36.39 	0.062386 	4921 	0.061176
36.43 	0.059659 	4928 	0.058470
36.47 	0.052877 	4936 	0.051690
36.51 	0.054733 	4933 	0.054377
36.55 	0.053988 	4927 	0.053037
36.59 	0.058311 	4939 	0.057718
36.63 	0.054756 	4931 	0.053686
36.67 	0.055172 	4930 	0.054459
36.71 	0.054460 	4921 	0.053627
36.75 	0.065129 	4944 	0.063471
36.79 	0.055070 	4921 	0.054594
36.83 	0.054323 	4915 	0.053708
36.87 	0.055421 	4944 	0.054710
36.91 	0.057478 	4941 	0.056411
36.95 	0.054328 	4933 	0.053616
36.99 	0.056738 	4935 	0.056025
37.03 	0.053412 	4924 	0.052579
37.07 	0.049037 	4935 	0.048563
37.11 	0.054711 	4935 	0.053880
37.15 	0.056631 	4909 	0.055557
37.19 	0.056853 	4925 	0.055663
37.23 	0.051240 	4918 	0.051002
37.27 	0.051900 	4894 	0.051781
37.31 	0.055927 	4935 	0.055215
37.35 	0.057311 	4938 	0.056836
37.39 	0.052119 	4931 	0.051288
37.43 	0.050081 	4932 	0.049368
37.47 	0.057415 	4929 	0.056227
37.51 	0.051490 	4933 	0.051134
37.55 	0.056795 	4930 	0.055369
37.59 	0.060224 	4915 	0.059151
37.63 	0.056109 	4919 	0.055633
37.67 	0.052814 	4904 	0.052097
37.71 	0.053561 	4929 	0.052353
37.75 	0.052834 	4940 	0.052360
37.79 	0.052738 	4930 	0.052025
37.83 	0.053659 	4920 	0.053182
37.87 	0.053655 	4939 	0.052706
37.91 	0.054158 	4930 	0.053683
37.95 	0.063808 	4921 	0.063094
37.99 	0.058021 	4912 	0.057067
38.03 	0.056020 	4909 	0.055184
38.07 	0.051945 	4909 	0.051587
38.11 	0.055319 	4935 	0.054370
38.15 	0.055917 	4918 	0.055083
38.19 	0.057606 	4930 	0.056418
38.23 	0.060348 	4938 	0.059637
38.27 	0.067748 	4930 	0.066660
38.31 	0.062919 	4927 	0.061135
38.35 	0.062906 	4928 	0.062074
38.39 	0.067223 	4909 	0.065792
38.43 	0.069569 	4916 	0.067881
38.47 	0.063379 	4907 	0.062424
38.51 	0.064477 	4932 	0.063408
38.55 	0.056321 	4936 	0.055134
38.59 	0.056661 	4924 	0.055472
38.63 	0.057271 	4924 	0.055328
38.67 	0.055702 	4937 	0.055227
38.71 	0.053209 	4924 	0.052138
38.75 	0.056627 	4927 	0.055794
38.79 	0.054520 	4934 	0.053570
38.83 	0.052043 	4919 	0.050852
38.87 	0.054164 	4911 	0.053091
38.91 	0.055476 	4903 	0.054759
38.95 	0.050224 	4918 	0.048913
38.99 	0.055904 	4937 	0.055054
39.03 	0.055736 	4934 	0.055142
39.07 	0.052193 	4924 	0.051480
39.11 	0.054958 	4931 	0.054127
39.15 	0.059613 	4915 	0.059018
39.19 	0.053488 	4917 	0.052416
39.23 	0.053604 	4925 	0.052771
39.27 	0.052342 	4910 	0.051626
39.31 	0.061835 	4884 	0.060155
39.35 	0.052077 	4935 	0.051721
39.39 	0.056198 	4929 	0.055604
39.43 	0.050071 	4933 	0.049240
39.47 	0.052204 	4923 	0.051728
39.51 	0.055646 	4924 	0.054456
39.55 	0.055702 	4919 	0.054750
39.59 	0.051710 	4912 	0.051233
39.63 	0.056887 	4922 	0.055578
39.67 	0.054142 	4913 	0.053069
39.71 	0.053933 	4895 	0.053334
39.75 	0.053977 	4928 	0.052789
39.79 	0.049330 	4926 	0.048617
39.83 	0.053304 	4934 	0.052473
39.87 	0.058477 	4925 	0.057288
39.91 	0.052215 	4922 	0.051262
39.95 	0.056562 	4915 	0.055966
39.99 	0.049067 	4932 	0.047998
40.03 	0.053571 	4928 	0.052502
40.07 	0.053423 	4923 	0.052828
40.11 	0.051871 	4916 	0.050561
40.15 	0.052921 	4913 	0.051828
40.19 	0.054778 	4929 	0.053827
40.23 	0.051298 	4932 	0.050823
40.27 	0.050435 	4937 	0.049961
40.31 	0.049200 	4939 	0.048370
40.35 	0.054483 	4919 	0.053868
40.39 	0.056784 	4931 	0.055457
40.43 	0.054043 	4922 	0.053567
40.47 	0.049207 	4918 	0.048016
40.51 	0.053027 	4922 	0.052432
40.55 	0.048492 	4908 	0.047776
40.59 	0.056917 	4937 	0.056205
40.63 	0.047465 	4930 	0.046514
40.67 	0.052717 	4932 	0.051866
40.71 	0.046026 	4932 	0.045551
40.75 	0.049888 	4931 	0.049176
40.79 	0.050772 	4924 	0.049463
40.83 	0.044846 	4928 	0.044608
40.87 	0.053571 	4928 	0.052363
40.91 	0.047735 	4923 	0.046545
40.95 	0.051700 	4913 	0.050746
40.99 	0.053412 	4924 	0.052341
41.03 	0.047299 	4905 	0.046702
41.07 	0.047059 	4930 	0.046584
41.11 	0.046403 	4935 	0.045197
41.15 	0.048978 	4941 	0.048267
41.19 	0.048479 	4930 	0.047766
41.23 	0.047378 	4939 	0.047022
41.27 	0.051105 	4931 	0.050392
41.31 	0.055950 	4933 	0.054743
41.35 	0.050223 	4938 	0.049630
41.39 	0.051490 	4933 	0.050777
41.43 	0.050720 	4929 	0.050126
41.47 	0.053593 	4926 	0.052404
41.51 	0.051417 	4940 	0.051298
41.55 	0.043972 	4935 	0.043616
41.59 	0.049057 	4933 	0.048701
41.63 	0.053260 	4938 	0.052311
41.67 	0.051619 	4940 	0.051027
41.71 	0.050466 	4934 	0.049991
41.75 	0.049909 	4929 	0.049077
41.79 	0.047128 	4944 	0.046180
41.83 	0.043222 	4928 	0.042390
41.87 	0.047619 	4935 	0.047382
41.91 	0.045786 	4936 	0.045311
41.95 	0.048672 	4931 	0.048196
41.99 	0.050561 	4905 	0.049725
42.03 	0.043329 	4939 	0.042854
42.07 	0.047195 	4937 	0.046720
42.11 	0.049343 	4945 	0.048632
42.15 	0.048198 	4938 	0.047723
42.19 	0.047881 	4908 	0.047404
42.23 	0.044767 	4892 	0.044527
42.27 	0.046163 	4874 	0.045923
42.31 	0.046756 	4855 	0.046394
42.35 	0.044853 	4838 	0.044369
42.39 	0.043922 	4804 	0.043556
42.43 	0.045492 	4792 	0.044637
42.47 	0.045540 	4765 	0.045417
42.51 	0.049336 	4743 	0.048471
42.55 	0.046729 	4708 	0.045609
42.59 	0.053288 	4729 	0.052545
42.63 	0.045870 	4709 	0.045372
42.67 	0.049103 	4684 	0.048353
42.71 	0.047609 	4663 	0.046729
42.75 	0.044401 	4617 	0.043513
42.79 	0.047359 	4582 	0.046720
42.83 	0.046296 	4536 	0.045521
42.87 	0.044010 	4499 	0.043359
42.91 	0.047352 	4456 	0.047089
42.95 	0.038949 	4416 	0.038551
42.99 	0.046066 	4385 	0.045398
43.03 	0.047081 	4333 	0.046269
43.07 	0.047486 	4296 	0.046668
43.11 	0.049824 	4255 	0.049411
43.15 	0.045887 	4206 	0.045469
43.19 	0.041965 	4194 	0.041243
43.23 	0.047906 	4154 	0.047483
43.27 	0.047259 	4105 	0.046118
43.31 	0.040451 	4079 	0.040307
43.35 	0.048859 	4032 	0.047987
43.39 	0.043228 	4002 	0.042497
43.43 	0.043182 	3960 	0.042294
43.47 	0.042081 	3921 	0.041633
43.51 	0.046944 	3877 	0.046490
43.55 	0.044534 	2964 	0.044534
43.59 	0.050401 	1746 	0.050065
43.63 	0.039960 	1001 	0.039375
43.67 	0.033865 	502 	0.033865
43.71 	0.033473 	239 	0.033473
43.75 	0.062500 	16 	0.062500