File: Example_Data/25SC_s1_0048.002.dat
#F C:\frames\spec\25SC_s1_0048.002
#C title =s:48 frm:2 25SC_s1
#C wavelength =0.15406

#S 1  fr_average C:\frames\spec\25SC_s1_0048.002 C:\win32app\speccom\mask.axs chi 0 180 0 360 0.02
#C 2 theta =0.000000 to 180 deg
#C   q   =0.000000 to 81.568 nm^-1
#C  chi  =0.000000 to 360 deg
#C collumns:
#C  1 position (2theta or chi in degrees)
#C  2 average intensity (sum of all counts in the region divided with number of pixels)
#C  3 Number of pixels in region)
#C  4 error (sum of sqrt(intensity) for all pixels divided by number)
#N 4
#L TTh  Int  N_pix  Err
32.99 	0.098361 	61 	0.098361
33.03 	0.057513 	1391 	0.056670
33.07 	0.058049 	2050 	0.056906
33.11 	0.051570 	2579 	0.049753
33.15 	0.057019 	2999 	0.055847
33.19 	0.060144 	3342 	0.058216
33.23 	0.053931 	3523 	0.053266
33.27 	0.055923 	3630 	0.055277
33.31 	0.054098 	3660 	0.053298
33.35 	0.059556 	3694 	0.058446
33.39 	0.065969 	3729 	0.064530
33.43 	0.057166 	3761 	0.056075
33.47 	0.060821 	3798 	0.060205
33.51 	0.059240 	3815 	0.058319
33.55 	0.057247 	3843 	0.056002
33.59 	0.059794 	3880 	0.058737
33.63 	0.060730 	3919 	0.059982
33.67 	0.055893 	3954 	0.055276
33.71 	0.057358 	3975 	0.056622
33.75 	0.055514 	3999 	0.054635
33.79 	0.058649 	4041 	0.057634
33.83 	0.061975 	4050 	0.060818
33.87 	0.055704 	4111 	0.055419
33.91 	0.056399 	4149 	0.055693
33.95 	0.051901 	4181 	0.050641
33.99 	0.054286 	4200 	0.053309
34.03 	0.053723 	4244 	0.052895
34.07 	0.062090 	4268 	0.061266
34.11 	0.054393 	4302 	0.053032
34.15 	0.062341 	4331 	0.061530
34.19 	0.055708 	4362 	0.055171
34.23 	0.050307 	4393 	0.050041
34.27 	0.054953 	4422 	0.054025
34.31 	0.054957 	4458 	0.054432
34.35 	0.055085 	4484 	0.054170
34.39 	0.060862 	4502 	0.059300
34.43 	0.057281 	4539 	0.055991
34.47 	0.058145 	4592 	0.057103
34.51 	0.056014 	4606 	0.054615
34.55 	0.057506 	4643 	0.056749
34.59 	0.054973 	4675 	0.053720
34.63 	0.056900 	4710 	0.056527
34.67 	0.048935 	4741 	0.048564
34.71 	0.060008 	4766 	0.059271
34.75 	0.059692 	4808 	0.058230
34.79 	0.062189 	4824 	0.060469
34.83 	0.055944 	4862 	0.055101
34.87 	0.056286 	4868 	0.055203
34.91 	0.055920 	4882 	0.054840
34.95 	0.050102 	4890 	0.049743
34.99 	0.058812 	4897 	0.057615
35.03 	0.054420 	4943 	0.053946
35.07 	0.055061 	4940 	0.054705
35.11 	0.055589 	4947 	0.054642
35.15 	0.060158 	4937 	0.059683
35.19 	0.057871 	4942 	0.057160
35.23 	0.059656 	4945 	0.058827
35.27 	0.061439 	4948 	0.060137
35.31 	0.050476 	4933 	0.049388
35.35 	0.057467 	4942 	0.057348
35.39 	0.054196 	4945 	0.052874
35.43 	0.062437 	4933 	0.061605
35.47 	0.055364 	4931 	0.054532
35.51 	0.058871 	4926 	0.058396
35.55 	0.052376 	4945 	0.051428
35.59 	0.049545 	4945 	0.048815
35.63 	0.057860 	4943 	0.056556
35.67 	0.059288 	4942 	0.058102
35.71 	0.056715 	4937 	0.055291
35.75 	0.055770 	4931 	0.055176
35.79 	0.052717 	4932 	0.052123
35.83 	0.057825 	4946 	0.057588
35.87 	0.052407 	4923 	0.051555
35.91 	0.061295 	4927 	0.060582
35.95 	0.055318 	4917 	0.054484
35.99 	0.058311 	4939 	0.057125
36.03 	0.052195 	4943 	0.051247
36.07 	0.053047 	4939 	0.052336
36.11 	0.055792 	4929 	0.055079
36.15 	0.055679 	4939 	0.054612
36.19 	0.057692 	4940 	0.056744
36.23 	0.060790 	4935 	0.059959
36.27 	0.053401 	4925 	0.052331
36.31 	0.055398 	4928 	0.054328
36.35 	0.055589 	4929 	0.054876
36.39 	0.058118 	4921 	0.057404
36.43 	0.059659 	4928 	0.058332
36.47 	0.060373 	4936 	0.059423
36.51 	0.058382 	4933 	0.057789
36.55 	0.055409 	4927 	0.054815
36.59 	0.064588 	4939 	0.063501
36.63 	0.060231 	4931 	0.059043
36.67 	0.049899 	4930 	0.049542
36.71 	0.060150 	4921 	0.059079
36.75 	0.049757 	4944 	0.048928
36.79 	0.059744 	4921 	0.058911
36.83 	0.062869 	4915 	0.061319
36.87 	0.060073 	4944 	0.058888
36.91 	0.055657 	4941 	0.054353
36.95 	0.059599 	4933 	0.058411
36.99 	0.060385 	4935 	0.059317
37.03 	0.057271 	4924 	0.056438
37.07 	0.053698 	4935 	0.053105
37.11 	0.052888 	4935 	0.051325
37.15 	0.060705 	4909 	0.059273
37.19 	0.051574 	4925 	0.051098
37.23 	0.054494 	4918 	0.053541
37.27 	0.047814 	4894 	0.046856
37.31 	0.058359 	4935 	0.057528
37.35 	0.048805 	4938 	0.047975
37.39 	0.050294 	4931 	0.049581
37.43 	0.053325 	4932 	0.052494
37.47 	0.049097 	4929 	0.048859
37.51 	0.052706 	4933 	0.051519
37.55 	0.052738 	4930 	0.051907
37.59 	0.052289 	4915 	0.051455
37.63 	0.051027 	4919 	0.050431
37.67 	0.054445 	4904 	0.053351
37.71 	0.062690 	4929 	0.060769
37.75 	0.048178 	4940 	0.047585
37.79 	0.053753 	4930 	0.052446
37.83 	0.050813 	4920 	0.049603
37.87 	0.046366 	4939 	0.045654
37.91 	0.056592 	4930 	0.055642
37.95 	0.048567 	4921 	0.048210
37.99 	0.053542 	4912 	0.052827
38.03 	0.060297 	4909 	0.059343
38.07 	0.055408 	4909 	0.054334
38.11 	0.054103 	4935 	0.053372
38.15 	0.053274 	4918 	0.052539
38.19 	0.056592 	4930 	0.055761
38.23 	0.060753 	4938 	0.059448
38.27 	0.058215 	4930 	0.056789
38.31 	0.052973 	4927 	0.052022
38.35 	0.059862 	4928 	0.058317
38.39 	0.055205 	4909 	0.054489
38.43 	0.067738 	4916 	0.066308
38.47 	0.066436 	4907 	0.064625
38.51 	0.070154 	4932 	0.068591
38.55 	0.064019 	4936 	0.062714
38.59 	0.062551 	4924 	0.061837
38.63 	0.064582 	4924 	0.063610
38.67 	0.052664 	4937 	0.052070
38.71 	0.059504 	4924 	0.058791
38.75 	0.053379 	4927 	0.052309
38.79 	0.054722 	4934 	0.053654
38.83 	0.042895 	4919 	0.042061
38.87 	0.046019 	4911 	0.044946
38.91 	0.044667 	4903 	0.044428
38.95 	0.049817 	4918 	0.049460
38.99 	0.045372 	4937 	0.045134
39.03 	0.047629 	4934 	0.046798
39.07 	0.046710 	4924 	0.045401
39.11 	0.048063 	4931 	0.047469
39.15 	0.045778 	4915 	0.045301
39.19 	0.048810 	4917 	0.047976
39.23 	0.043046 	4925 	0.042332
39.27 	0.041955 	4910 	0.041239
39.31 	0.036650 	4884 	0.036171
39.35 	0.048024 	4935 	0.046956
39.39 	0.044634 	4929 	0.043802
39.43 	0.039530 	4933 	0.038936
39.47 	0.047126 	4923 	0.046531
39.51 	0.045695 	4924 	0.045100
39.55 	0.043708 	4919 	0.043113
39.59 	0.047028 	4912 	0.046551
39.63 	0.047135 	4922 	0.046183
39.67 	0.046204 	4913 	0.045608
39.71 	0.042084 	4895 	0.041485
39.75 	0.044237 	4928 	0.043762
39.79 	0.047097 	4926 	0.046502
39.83 	0.040332 	4934 	0.039739
39.87 	0.046497 	4925 	0.046022
39.91 	0.044494 	4922 	0.044018
39.95 	0.049644 	4915 	0.049148
39.99 	0.043998 	4932 	0.043048
40.03 	0.038555 	4928 	0.038436
40.07 	0.044079 	4923 	0.043246
40.11 	0.042514 	4916 	0.041541
40.15 	0.040098 	4913 	0.039859
40.19 	0.046257 	4929 	0.045306
40.23 	0.046026 	4932 	0.045670
40.27 	0.043549 	4937 	0.043193
40.31 	0.039279 	4939 	0.039042
40.35 	0.041472 	4919 	0.040876
40.39 	0.041777 	4931 	0.041064
40.43 	0.042259 	4922 	0.042021
40.47 	0.041480 	4918 	0.040508
40.51 	0.044088 	4922 	0.043493
40.55 	0.040954 	4908 	0.040476
40.59 	0.043549 	4937 	0.042718
40.63 	0.041785 	4930 	0.041072
40.67 	0.038929 	4932 	0.038692
40.71 	0.043998 	4932 	0.043286
40.75 	0.044818 	4931 	0.044086
40.79 	0.045898 	4924 	0.045065
40.83 	0.044440 	4928 	0.043846
40.87 	0.043019 	4928 	0.042425
40.91 	0.040016 	4923 	0.039183
40.95 	0.043151 	4913 	0.042555
40.99 	0.042648 	4924 	0.041934
41.03 	0.044037 	4905 	0.043440
41.07 	0.045233 	4930 	0.044402
41.11 	0.041135 	4935 	0.040541
41.15 	0.043918 	4941 	0.043444
41.19 	0.039757 	4930 	0.039162
41.23 	0.039482 	4939 	0.039363
41.27 	0.041168 	4931 	0.040693
41.31 	0.051287 	4933 	0.049862
41.35 	0.039692 	4938 	0.039574
41.39 	0.043989 	4933 	0.043396
41.43 	0.042605 	4929 	0.042248
41.47 	0.043646 	4926 	0.042814
41.51 	0.040081 	4940 	0.039844
41.55 	0.044174 	4935 	0.043818
41.59 	0.041760 	4933 	0.041403
41.63 	0.042730 	4938 	0.041899
41.67 	0.035020 	4940 	0.034665
41.71 	0.040738 	4934 	0.040243
41.75 	0.040779 	4929 	0.040304
41.79 	0.040251 	4944 	0.039777
41.83 	0.041802 	4928 	0.041326
41.87 	0.039919 	4935 	0.039800
41.91 	0.038898 	4936 	0.038067
41.95 	0.041168 	4931 	0.040931
41.99 	0.035270 	4905 	0.034912
42.03 	0.039887 	4939 	0.039056
42.07 	0.038485 	4937 	0.037773
42.11 	0.038018 	4945 	0.037781
42.15 	0.036452 	4938 	0.036215
42.19 	0.038305 	4908 	0.037947
42.23 	0.035773 	4892 	0.035533
42.27 	0.040419 	4874 	0.040178
42.31 	0.041401 	4855 	0.041159
42.35 	0.039893 	4838 	0.039529
42.39 	0.038093 	4804 	0.037727
42.43 	0.034224 	4792 	0.034101
42.47 	0.038825 	4765 	0.038210
42.51 	0.036686 	4743 	0.036439
42.55 	0.039295 	4708 	0.038548
42.59 	0.038063 	4729 	0.037815
42.63 	0.037163 	4709 	0.036541
42.67 	0.037148 	4684 	0.036647
42.71 	0.035170 	4663 	0.034794
42.75 	0.041369 	4617 	0.041115
42.79 	0.041467 	4582 	0.041467
42.83 	0.040344 	4536 	0.039698
42.87 	0.035563 	4499 	0.035303
42.91 	0.039722 	4456 	0.038933
42.95 	0.038043 	4416 	0.038043
42.99 	0.039225 	4385 	0.038824
43.03 	0.036695 	4333 	0.036425
43.07 	0.038408 	4296 	0.037999
43.11 	0.041833 	4255 	0.041558
43.15 	0.033524 	4206 	0.032966
43.19 	0.038865 	4194 	0.038446
43.23 	0.035628 	4154 	0.035346
43.27 	0.042387 	4105 	0.041959
43.31 	0.037754 	4079 	0.037754
43.35 	0.035218 	4032 	0.034637
43.39 	0.038231 	4002 	0.037645
43.43 	0.042677 	3960 	0.041937
43.47 	0.038001 	3921 	0.037552
43.51 	0.039464 	3877 	0.038859
43.55 	0.035762 	2964 	0.035367
43.59 	0.043528 	1746 	0.042522
43.63 	0.037962 	1001 	0.037962
43.67 	0.041833 	502 	0.041833
43.71 	0.050209 	239 	0.050209
43.75 	0.125000 	16 	0.125000