File: Example_Data/25SC_s1_0052.007.dat
#F C:\frames\spec\25SC_s1_0052.007
#C title =s:52 frm:7 25SC_s1
#C wavelength =0.15406

#S 1  fr_average C:\frames\spec\25SC_s1_0052.007 C:\win32app\speccom\mask.axs chi 0 180 0 360 0.02
#C 2 theta =0.000000 to 180 deg
#C   q   =0.000000 to 81.568 nm^-1
#C  chi  =0.000000 to 360 deg
#C collumns:
#C  1 position (2theta or chi in degrees)
#C  2 average intensity (sum of all counts in the region divided with number of pixels)
#C  3 Number of pixels in region)
#C  4 error (sum of sqrt(intensity) for all pixels divided by number)
#N 4
#L TTh  Int  N_pix  Err
32.99 	0.081967 	61 	0.081967
33.03 	0.069015 	1391 	0.067331
33.07 	0.067805 	2050 	0.067233
33.11 	0.068244 	2579 	0.066199
33.15 	0.063688 	2999 	0.062679
33.19 	0.068821 	3342 	0.067594
33.23 	0.070111 	3523 	0.067783
33.27 	0.068044 	3630 	0.066888
33.31 	0.068852 	3660 	0.067252
33.35 	0.067407 	3694 	0.065662
33.39 	0.073478 	3729 	0.072536
33.43 	0.070460 	3761 	0.069188
33.47 	0.071617 	3798 	0.070537
33.51 	0.070511 	3815 	0.068490
33.55 	0.065834 	3843 	0.064310
33.59 	0.067268 	3880 	0.066035
33.63 	0.068895 	3919 	0.066903
33.67 	0.074102 	3954 	0.072621
33.71 	0.065660 	3975 	0.063278
33.75 	0.075019 	3999 	0.073383
33.79 	0.072507 	4041 	0.071202
33.83 	0.072840 	4050 	0.071225
33.87 	0.068596 	4111 	0.067741
33.91 	0.068691 	4149 	0.067539
33.95 	0.071514 	4181 	0.070253
33.99 	0.067619 	4200 	0.066201
34.03 	0.063384 	4244 	0.062555
34.07 	0.062090 	4268 	0.060443
34.11 	0.068340 	4302 	0.067251
34.15 	0.063496 	4331 	0.061986
34.19 	0.068776 	4362 	0.067008
34.23 	0.061689 	4393 	0.060356
34.27 	0.073722 	4422 	0.072000
34.31 	0.070884 	4458 	0.069285
34.35 	0.071811 	4484 	0.069721
34.39 	0.068192 	4502 	0.067151
34.43 	0.072042 	4539 	0.071010
34.47 	0.071864 	4592 	0.070078
34.51 	0.071863 	4606 	0.069955
34.55 	0.071290 	4643 	0.070028
34.59 	0.065668 	4675 	0.064040
34.63 	0.077070 	4710 	0.075578
34.67 	0.070238 	4741 	0.069373
34.71 	0.067142 	4766 	0.065299
34.75 	0.072587 	4808 	0.070516
34.79 	0.066750 	4824 	0.065900
34.83 	0.068490 	4862 	0.067165
34.87 	0.070255 	4868 	0.069051
34.91 	0.070258 	4882 	0.069418
34.95 	0.073620 	4890 	0.071823
34.99 	0.070247 	4897 	0.069170
35.03 	0.075258 	4943 	0.073560
35.07 	0.072267 	4940 	0.071081
35.11 	0.070952 	4947 	0.069294
35.15 	0.073526 	4937 	0.072083
35.19 	0.066977 	4942 	0.065298
35.23 	0.071790 	4945 	0.070250
35.27 	0.077001 	4948 	0.074495
35.31 	0.066896 	4933 	0.065471
35.35 	0.067179 	4942 	0.065757
35.39 	0.064510 	4945 	0.063443
35.43 	0.072167 	4933 	0.071336
35.47 	0.071791 	4931 	0.070603
35.51 	0.073285 	4926 	0.071263
35.55 	0.072801 	4945 	0.071261
35.59 	0.071587 	4945 	0.070877
35.63 	0.068784 	4943 	0.067362
35.67 	0.068798 	4942 	0.067119
35.71 	0.074742 	4937 	0.072349
35.75 	0.075441 	4931 	0.073521
35.79 	0.068938 	4932 	0.066918
35.83 	0.067327 	4946 	0.066143
35.87 	0.065814 	4923 	0.064505
35.91 	0.067384 	4927 	0.065482
35.95 	0.067521 	4917 	0.066806
35.99 	0.068030 	4939 	0.066725
36.03 	0.070200 	4943 	0.068640
36.07 	0.065398 	4939 	0.063619
36.11 	0.063502 	4929 	0.062432
36.15 	0.067423 	4939 	0.065762
36.19 	0.065587 	4940 	0.064283
36.23 	0.067275 	4935 	0.065613
36.27 	0.061523 	4925 	0.060452
36.31 	0.070008 	4928 	0.068582
36.35 	0.067356 	4929 	0.065811
36.39 	0.065231 	4921 	0.063683
36.43 	0.068994 	4928 	0.066735
36.47 	0.069084 	4936 	0.067898
36.51 	0.069126 	4933 	0.067464
36.55 	0.064948 	4927 	0.063997
36.59 	0.060539 	4939 	0.059590
36.63 	0.064693 	4931 	0.062772
36.67 	0.063286 	4930 	0.062217
36.71 	0.064418 	4921 	0.062751
36.75 	0.071804 	4944 	0.070619
36.79 	0.067872 	4921 	0.066444
36.83 	0.067955 	4915 	0.066644
36.87 	0.060275 	4944 	0.059446
36.91 	0.064764 	4941 	0.063460
36.95 	0.068315 	4933 	0.066415
36.99 	0.068896 	4935 	0.066878
37.03 	0.065191 	4924 	0.063744
37.07 	0.070922 	4935 	0.068766
37.11 	0.059777 	4935 	0.058353
37.15 	0.068853 	4909 	0.067779
37.19 	0.061523 	4925 	0.061047
37.23 	0.067100 	4918 	0.065433
37.27 	0.064978 	4894 	0.063302
37.31 	0.064438 	4935 	0.063132
37.35 	0.066424 	4938 	0.065119
37.39 	0.066315 	4931 	0.064890
37.43 	0.060827 	4932 	0.059877
37.47 	0.067965 	4929 	0.066539
37.51 	0.060612 	4933 	0.059168
37.55 	0.065923 	4930 	0.063883
37.59 	0.059613 	4915 	0.058660
37.63 	0.065054 	4919 	0.063863
37.67 	0.059747 	4904 	0.058672
37.71 	0.064922 	4929 	0.064328
37.75 	0.066802 	4940 	0.065497
37.79 	0.067140 	4930 	0.065476
37.83 	0.064634 	4920 	0.063563
37.87 	0.064790 	4939 	0.063703
37.91 	0.064706 	4930 	0.063231
37.95 	0.060354 	4921 	0.059877
37.99 	0.062500 	4912 	0.061188
38.03 	0.067223 	4909 	0.066388
38.07 	0.061316 	4909 	0.060481
38.11 	0.058156 	4935 	0.057088
38.15 	0.063237 	4918 	0.062403
38.19 	0.064097 	4930 	0.062890
38.23 	0.066424 	4938 	0.065356
38.27 	0.067546 	4930 	0.066476
38.31 	0.067790 	4927 	0.066700
38.35 	0.069805 	4928 	0.068498
38.39 	0.071705 	4909 	0.070631
38.43 	0.076485 	4916 	0.074797
38.47 	0.076829 	4907 	0.075635
38.51 	0.066707 	4932 	0.065519
38.55 	0.072326 	4936 	0.070427
38.59 	0.067831 	4924 	0.066503
38.63 	0.071284 	4924 	0.070332
38.67 	0.072716 	4937 	0.070442
38.71 	0.064785 	4924 	0.064170
38.75 	0.067993 	4927 	0.066685
38.79 	0.059789 	4934 	0.058602
38.83 	0.063428 	4919 	0.062475
38.87 	0.059255 	4911 	0.058658
38.91 	0.059759 	4903 	0.059162
38.95 	0.065270 	4918 	0.063960
38.99 	0.060766 	4937 	0.059916
39.03 	0.059181 	4934 	0.058113
39.07 	0.058286 	4924 	0.056839
39.11 	0.061854 	4931 	0.061022
39.15 	0.058800 	4915 	0.058204
39.19 	0.058572 	4917 	0.057738
39.23 	0.056650 	4925 	0.055679
39.27 	0.052953 	4910 	0.052476
39.31 	0.054054 	4884 	0.053195
39.35 	0.055724 	4935 	0.054894
39.39 	0.058633 	4929 	0.057682
39.43 	0.052301 	4933 	0.051588
39.47 	0.061751 	4923 	0.060204
39.51 	0.056255 	4924 	0.055541
39.55 	0.059565 	4919 	0.058970
39.59 	0.059650 	4912 	0.058934
39.63 	0.060138 	4922 	0.059543
39.67 	0.057399 	4913 	0.055610
39.71 	0.059040 	4895 	0.058082
39.75 	0.058847 	4928 	0.057639
39.79 	0.063337 	4926 	0.062267
39.83 	0.053304 	4934 	0.053066
39.87 	0.052995 	4925 	0.052400
39.91 	0.060748 	4922 	0.059915
39.95 	0.055544 	4915 	0.055306
39.99 	0.054947 	4932 	0.053878
40.03 	0.053369 	4928 	0.052893
40.07 	0.056063 	4923 	0.055468
40.11 	0.052889 	4916 	0.052054
40.15 	0.053124 	4913 	0.052151
40.19 	0.056401 	4929 	0.055569
40.23 	0.058394 	4932 	0.057919
40.27 	0.055702 	4937 	0.054990
40.31 	0.053250 	4939 	0.052182
40.35 	0.057329 	4919 	0.056376
40.39 	0.053944 	4931 	0.053350
40.43 	0.051199 	4922 	0.050247
40.47 	0.055307 	4918 	0.054592
40.51 	0.059529 	4922 	0.058577
40.55 	0.050937 	4908 	0.050102
40.59 	0.053069 	4937 	0.052594
40.63 	0.052333 	4930 	0.051620
40.67 	0.058394 	4932 	0.057800
40.71 	0.052109 	4932 	0.051277
40.75 	0.050091 	4931 	0.049735
40.79 	0.058083 	4924 	0.057131
40.83 	0.053571 	4928 	0.052383
40.87 	0.056209 	4928 	0.055615
40.91 	0.056063 	4923 	0.055211
40.95 	0.062080 	4913 	0.061007
40.99 	0.058286 	4924 	0.057334
41.03 	0.048114 	4905 	0.047398
41.07 	0.050304 	4930 	0.049948
41.11 	0.056130 	4935 	0.054923
41.15 	0.055657 	4941 	0.054590
41.19 	0.049899 	4930 	0.049304
41.23 	0.056692 	4939 	0.055031
41.27 	0.058203 	4931 	0.056639
41.31 	0.057977 	4933 	0.057146
41.35 	0.054273 	4938 	0.053304
41.39 	0.052504 	4933 	0.051791
41.43 	0.054372 	4929 	0.053897
41.47 	0.051360 	4926 	0.049695
41.51 	0.056275 	4940 	0.054971
41.55 	0.055724 	4935 	0.055131
41.59 	0.048247 	4933 	0.047890
41.63 	0.050425 	4938 	0.049714
41.67 	0.050607 	4940 	0.049521
41.71 	0.053709 	4934 	0.052878
41.75 	0.053358 	4929 	0.052882
41.79 	0.054207 	4944 	0.053496
41.83 	0.058847 	4928 	0.057302
41.87 	0.046606 	4935 	0.044925
41.91 	0.051053 	4936 	0.050460
41.95 	0.055364 	4931 	0.054532
41.99 	0.054230 	4905 	0.053394
42.03 	0.050010 	4939 	0.048805
42.07 	0.046384 	4937 	0.045673
42.11 	0.052578 	4945 	0.051986
42.15 	0.047185 	4938 	0.046711
42.19 	0.048492 	4908 	0.047179
42.23 	0.053557 	4892 	0.052599
42.27 	0.047805 	4874 	0.046963
42.31 	0.046962 	4855 	0.046721
42.35 	0.050641 	4838 	0.049551
42.39 	0.051624 	4804 	0.050770
42.43 	0.047162 	4792 	0.046795
42.47 	0.046380 	4765 	0.045765
42.51 	0.050601 	4743 	0.049736
42.55 	0.053738 	4708 	0.052743
42.59 	0.048425 	4729 	0.047929
42.63 	0.051816 	4709 	0.050945
42.67 	0.050384 	4684 	0.049884
42.71 	0.045250 	4663 	0.044873
42.75 	0.047217 	4617 	0.046709
42.79 	0.047577 	4582 	0.046938
42.83 	0.047178 	4536 	0.046274
42.87 	0.048900 	4499 	0.048379
42.91 	0.049596 	4456 	0.048544
42.95 	0.057292 	4416 	0.056230
42.99 	0.046066 	4385 	0.044997
43.03 	0.055389 	4333 	0.054443
43.07 	0.042831 	4296 	0.042149
43.11 	0.054289 	4255 	0.053738
43.15 	0.047789 	4206 	0.047232
43.19 	0.040296 	4194 	0.040156
43.23 	0.052961 	4154 	0.052256
43.27 	0.047503 	4105 	0.047218
43.31 	0.044619 	4079 	0.044475
43.35 	0.053075 	4032 	0.052494
43.39 	0.051724 	4002 	0.051285
43.43 	0.046465 	3960 	0.045873
43.47 	0.047182 	3921 	0.046883
43.51 	0.042817 	3877 	0.042666
43.55 	0.045547 	2964 	0.044954
43.59 	0.040092 	1746 	0.039421
43.63 	0.041958 	1001 	0.040788
43.67 	0.049801 	502 	0.048634
43.71 	0.046025 	239 	0.046025
43.75 	0.000000 	16 	0.000000