File: Example_Data/25SC_s1_0044.003.dat
#F C:\frames\spec\25SC_s1_0044.003
#C title =s:44 frm:3 25SC_s1
#C wavelength =0.15406

#S 1  fr_average C:\frames\spec\25SC_s1_0044.003 C:\win32app\speccom\mask.axs chi 0 180 0 360 0.02
#C 2 theta =0.000000 to 180 deg
#C   q   =0.000000 to 81.568 nm^-1
#C  chi  =0.000000 to 360 deg
#C collumns:
#C  1 position (2theta or chi in degrees)
#C  2 average intensity (sum of all counts in the region divided with number of pixels)
#C  3 Number of pixels in region)
#C  4 error (sum of sqrt(intensity) for all pixels divided by number)
#N 4
#L TTh  Int  N_pix  Err
32.99 	0.114754 	61 	0.114754
33.03 	0.064702 	1391 	0.063859
33.07 	0.058049 	2050 	0.056620
33.11 	0.060101 	2579 	0.058965
33.15 	0.063021 	2999 	0.062044
33.19 	0.056852 	3342 	0.055801
33.23 	0.053364 	3523 	0.052865
33.27 	0.061157 	3630 	0.060350
33.31 	0.066667 	3660 	0.065226
33.35 	0.055766 	3694 	0.055290
33.39 	0.059533 	3729 	0.058748
33.43 	0.060090 	3761 	0.058844
33.47 	0.063454 	3798 	0.062066
33.51 	0.063696 	3815 	0.063082
33.55 	0.055425 	3843 	0.054181
33.59 	0.058763 	3880 	0.057253
33.63 	0.066599 	3919 	0.065229
33.67 	0.061204 	3954 	0.060167
33.71 	0.063899 	3975 	0.062868
33.75 	0.054514 	3999 	0.053342
33.79 	0.055679 	4041 	0.054954
33.83 	0.059259 	4050 	0.058391
33.87 	0.055461 	4111 	0.055176
33.91 	0.057363 	4149 	0.056940
33.95 	0.057881 	4181 	0.056480
33.99 	0.054286 	4200 	0.053309
34.03 	0.058435 	4244 	0.056365
34.07 	0.061621 	4268 	0.059974
34.11 	0.067643 	4302 	0.066281
34.15 	0.058185 	4331 	0.057103
34.19 	0.062357 	4362 	0.061685
34.23 	0.050990 	4393 	0.050057
34.27 	0.062189 	4422 	0.061129
34.31 	0.062360 	4458 	0.061177
34.35 	0.058876 	4484 	0.057962
34.39 	0.055531 	4502 	0.054490
34.43 	0.058383 	4539 	0.057609
34.47 	0.056620 	4592 	0.055472
34.51 	0.063178 	4606 	0.061907
34.55 	0.057506 	4643 	0.056728
34.59 	0.055829 	4675 	0.054952
34.63 	0.064331 	4710 	0.063212
34.67 	0.057794 	4741 	0.057052
34.71 	0.057491 	4766 	0.056876
34.75 	0.066556 	4808 	0.065561
34.79 	0.057629 	4824 	0.056657
34.83 	0.056561 	4862 	0.055236
34.87 	0.057108 	4868 	0.056125
34.91 	0.056329 	4882 	0.055969
34.95 	0.063804 	4890 	0.062486
34.99 	0.060649 	4897 	0.060051
35.03 	0.058669 	4943 	0.057484
35.07 	0.054858 	4940 	0.054028
35.11 	0.057004 	4947 	0.056294
35.15 	0.062994 	4937 	0.061451
35.19 	0.054027 	4942 	0.053316
35.23 	0.056016 	4945 	0.055068
35.27 	0.062247 	4948 	0.061182
35.31 	0.051085 	4933 	0.050610
35.35 	0.055443 	4942 	0.054139
35.39 	0.058443 	4945 	0.057258
35.43 	0.057571 	4933 	0.056859
35.47 	0.058609 	4931 	0.057421
35.51 	0.063946 	4926 	0.062638
35.55 	0.055814 	4945 	0.054748
35.59 	0.052781 	4945 	0.051833
35.63 	0.059883 	4943 	0.058678
35.67 	0.053824 	4942 	0.052876
35.71 	0.054284 	4937 	0.053078
35.75 	0.054553 	4931 	0.053840
35.79 	0.059205 	4932 	0.058611
35.83 	0.053579 	4946 	0.052868
35.87 	0.060126 	4923 	0.059174
35.91 	0.059468 	4927 	0.058636
35.95 	0.053895 	4917 	0.052922
35.99 	0.054464 	4939 	0.053516
36.03 	0.056443 	4943 	0.055851
36.07 	0.053250 	4939 	0.052064
36.11 	0.057010 	4929 	0.056178
36.15 	0.059931 	4939 	0.059338
36.19 	0.060121 	4940 	0.059054
36.23 	0.055927 	4935 	0.055096
36.27 	0.059289 	4925 	0.058219
36.31 	0.051948 	4928 	0.050878
36.35 	0.059647 	4929 	0.058934
36.39 	0.054257 	4921 	0.053662
36.43 	0.057833 	4928 	0.056625
36.47 	0.053687 	4936 	0.052738
36.51 	0.059599 	4933 	0.058292
36.55 	0.048914 	4927 	0.048082
36.59 	0.051832 	4939 	0.051477
36.63 	0.055770 	4931 	0.055176
36.67 	0.050101 	4930 	0.049270
36.71 	0.053648 	4921 	0.052933
36.75 	0.050769 	4944 	0.049821
36.79 	0.054867 	4921 	0.054391
36.83 	0.060020 	4915 	0.058709
36.87 	0.055218 	4944 	0.054389
36.91 	0.049787 	4941 	0.049076
36.95 	0.051490 	4933 	0.050184
36.99 	0.057345 	4935 	0.056633
37.03 	0.057271 	4924 	0.056418
37.07 	0.055117 	4935 	0.053653
37.11 	0.058156 	4935 	0.056969
37.15 	0.050723 	4909 	0.049530
37.19 	0.051371 	4925 	0.050657
37.23 	0.058154 	4918 	0.057320
37.27 	0.049857 	4894 	0.048660
37.31 	0.050861 	4935 	0.050149
37.35 	0.052248 	4938 	0.050943
37.39 	0.054147 	4931 	0.053078
37.43 	0.050284 	4932 	0.049452
37.47 	0.057010 	4929 	0.055465
37.51 	0.054531 	4933 	0.053818
37.55 	0.045436 	4930 	0.045080
37.59 	0.047202 	4915 	0.046487
37.63 	0.055499 	4919 	0.053931
37.67 	0.057300 	4904 	0.056464
37.71 	0.054169 	4929 	0.053694
37.75 	0.049190 	4940 	0.048360
37.79 	0.048479 	4930 	0.047885
37.83 	0.050000 	4920 	0.049405
37.87 	0.056489 	4939 	0.055659
37.91 	0.051724 	4930 	0.051110
37.95 	0.055477 	4921 	0.054762
37.99 	0.053950 	4912 	0.053115
38.03 	0.050519 	4909 	0.049803
38.07 	0.048482 	4909 	0.048005
38.11 	0.052888 	4935 	0.052413
38.15 	0.047784 	4918 	0.047069
38.19 	0.052738 	4930 	0.052025
38.23 	0.050425 	4938 	0.049595
38.27 	0.058418 	4930 	0.057091
38.31 	0.056424 	4927 	0.055473
38.35 	0.052354 	4928 	0.051284
38.39 	0.060501 	4909 	0.059427
38.43 	0.056143 	4916 	0.055309
38.47 	0.061137 	4907 	0.059824
38.51 	0.059002 	4932 	0.057933
38.55 	0.061183 	4936 	0.060352
38.59 	0.060723 	4924 	0.059395
38.63 	0.057271 	4924 	0.056914
38.67 	0.059348 	4937 	0.058755
38.71 	0.055037 	4924 	0.053966
38.75 	0.055206 	4927 	0.054612
38.79 	0.050061 	4934 	0.049111
38.83 	0.053873 	4919 	0.053158
38.87 	0.050092 	4911 	0.049376
38.91 	0.048746 	4903 	0.047551
38.95 	0.051444 	4918 	0.050848
38.99 	0.051448 	4937 	0.050855
39.03 	0.050466 	4934 	0.049398
39.07 	0.046913 	4924 	0.046437
39.11 	0.047455 	4931 	0.046742
39.15 	0.051882 	4915 	0.051048
39.19 	0.052268 	4917 	0.052029
39.23 	0.052995 	4925 	0.052162
39.27 	0.038900 	4910 	0.038423
39.31 	0.048731 	4884 	0.048011
39.35 	0.051266 	4935 	0.050910
39.39 	0.046663 	4929 	0.045831
39.43 	0.047030 	4933 	0.046555
39.47 	0.047329 	4923 	0.046496
39.51 	0.048335 	4924 	0.047859
39.55 	0.046554 	4919 	0.045959
39.59 	0.048046 	4912 	0.047569
39.63 	0.044900 	4922 	0.044543
39.67 	0.049868 	4913 	0.049152
39.71 	0.046578 	4895 	0.045860
39.75 	0.051136 	4928 	0.050304
39.79 	0.052984 	4926 	0.052390
39.83 	0.050872 	4934 	0.050278
39.87 	0.045685 	4925 	0.045328
39.91 	0.048151 	4922 	0.047437
39.95 	0.044151 	4915 	0.043793
39.99 	0.051298 	4932 	0.049596
40.03 	0.052354 	4928 	0.051997
40.07 	0.050782 	4923 	0.049711
40.11 	0.044955 	4916 	0.044240
40.15 	0.048646 	4913 	0.048289
40.19 	0.046460 	4929 	0.045509
40.23 	0.042174 	4932 	0.041698
40.27 	0.041321 	4937 	0.040352
40.31 	0.044138 	4939 	0.043645
40.35 	0.046351 	4919 	0.045994
40.39 	0.044616 	4931 	0.044022
40.43 	0.041853 	4922 	0.040881
40.47 	0.047580 	4918 	0.046627
40.51 	0.045510 	4922 	0.044915
40.55 	0.045436 	4908 	0.044959
40.59 	0.042131 	4937 	0.041538
40.63 	0.048884 	4930 	0.048171
40.67 	0.042782 	4932 	0.041832
40.71 	0.047040 	4932 	0.046565
40.75 	0.048874 	4931 	0.048162
40.79 	0.047522 	4924 	0.047284
40.83 	0.049310 	4928 	0.048835
40.87 	0.044643 	4928 	0.043930
40.91 	0.042657 	4923 	0.042181
40.95 	0.052921 	4913 	0.051947
40.99 	0.047522 	4924 	0.047522
41.03 	0.047910 	4905 	0.047313
41.07 	0.036105 	4930 	0.035511
41.11 	0.042958 	4935 	0.042602
41.15 	0.044323 	4941 	0.043730
41.19 	0.044422 	4930 	0.043709
41.23 	0.042114 	4939 	0.041758
41.27 	0.041777 	4931 	0.041539
41.31 	0.048044 	4933 	0.047806
41.35 	0.040502 	4938 	0.040265
41.39 	0.051490 	4933 	0.051134
41.43 	0.039968 	4929 	0.039254
41.47 	0.043037 	4926 	0.042561
41.51 	0.041093 	4940 	0.040619
41.55 	0.042148 	4935 	0.041792
41.59 	0.042976 	4933 	0.042382
41.63 	0.044350 	4938 	0.043737
41.67 	0.041700 	4940 	0.040989
41.71 	0.043575 	4934 	0.042982
41.75 	0.044837 	4929 	0.043529
41.79 	0.046926 	4944 	0.046096
41.83 	0.043628 	4928 	0.042915
41.87 	0.041135 	4935 	0.040660
41.91 	0.041329 	4936 	0.041092
41.95 	0.042791 	4931 	0.042078
41.99 	0.043629 	4905 	0.043032
42.03 	0.042114 	4939 	0.041758
42.07 	0.036662 	4937 	0.036187
42.11 	0.042265 	4945 	0.041791
42.15 	0.043742 	4938 	0.043387
42.19 	0.048900 	4908 	0.048422
42.23 	0.042314 	4892 	0.041835
42.27 	0.035700 	4874 	0.035339
42.31 	0.044078 	4855 	0.043716
42.35 	0.040306 	4838 	0.039943
42.39 	0.043297 	4804 	0.042424
42.43 	0.044658 	4792 	0.044047
42.47 	0.042183 	4765 	0.041568
42.51 	0.041746 	4743 	0.040881
42.55 	0.045879 	4708 	0.045506
42.59 	0.042504 	4729 	0.042008
42.63 	0.043958 	4709 	0.043336
42.67 	0.037361 	4684 	0.036611
42.71 	0.041175 	4663 	0.040798
42.75 	0.039636 	4617 	0.039255
42.79 	0.039721 	4582 	0.039465
42.83 	0.038801 	4536 	0.038672
42.87 	0.040453 	4499 	0.039933
42.91 	0.042639 	4456 	0.041719
42.95 	0.042572 	4416 	0.042307
42.99 	0.035348 	4385 	0.034813
43.03 	0.044080 	4333 	0.043540
43.07 	0.038408 	4296 	0.037999
43.11 	0.039718 	4255 	0.038754
43.15 	0.040656 	4206 	0.040378
43.19 	0.033143 	4194 	0.033143
43.23 	0.041406 	4154 	0.040983
43.27 	0.041413 	4105 	0.040699
43.31 	0.042903 	4079 	0.041754
43.35 	0.040427 	4032 	0.039991
43.39 	0.040980 	4002 	0.040980
43.43 	0.041919 	3960 	0.041475
43.47 	0.043866 	3921 	0.043269
43.51 	0.042043 	3877 	0.041438
43.55 	0.035088 	2964 	0.035088
43.59 	0.040664 	1746 	0.040664
43.63 	0.030969 	1001 	0.030969
43.67 	0.031873 	502 	0.029539
43.71 	0.037657 	239 	0.037657
43.75 	0.000000 	16 	0.000000