File: Example_Data/25SC_s1_0014.000.dat
#F C:\frames\spec\25SC_s1_0014.000
#C title =s:14 frm:0 25SC_s1
#C wavelength =0.15406

#S 1  fr_average C:\frames\spec\25SC_s1_0014.000 C:\win32app\speccom\mask.axs chi 0 180 0 360 0.02
#C 2 theta =0.000000 to 180 deg
#C   q   =0.000000 to 81.568 nm^-1
#C  chi  =0.000000 to 360 deg
#C collumns:
#C  1 position (2theta or chi in degrees)
#C  2 average intensity (sum of all counts in the region divided with number of pixels)
#C  3 Number of pixels in region)
#C  4 error (sum of sqrt(intensity) for all pixels divided by number)
#N 4
#L TTh  Int  N_pix  Err
32.99 	0.081967 	61 	0.081967
33.03 	0.074047 	1391 	0.073205
33.07 	0.053171 	2050 	0.052028
33.11 	0.063978 	2579 	0.063297
33.15 	0.056019 	2999 	0.054847
33.19 	0.055955 	3342 	0.055604
33.23 	0.062163 	3523 	0.060140
33.27 	0.061708 	3630 	0.060740
33.31 	0.053552 	3660 	0.053392
33.35 	0.056037 	3694 	0.054927
33.39 	0.054706 	3729 	0.053267
33.43 	0.058495 	3761 	0.057872
33.47 	0.063718 	3798 	0.063101
33.51 	0.060813 	3815 	0.059277
33.55 	0.061931 	3843 	0.060254
33.59 	0.060309 	3880 	0.058926
33.63 	0.058433 	3919 	0.057985
33.67 	0.064492 	3954 	0.064047
33.71 	0.064151 	3975 	0.063119
33.75 	0.060015 	3999 	0.059136
33.79 	0.065578 	4041 	0.064128
33.83 	0.067407 	4050 	0.065672
33.87 	0.062515 	4111 	0.061637
33.91 	0.057122 	4149 	0.055852
33.95 	0.067687 	4181 	0.066566
33.99 	0.056429 	4200 	0.055592
34.03 	0.058907 	4244 	0.057802
34.07 	0.061153 	4268 	0.059895
34.11 	0.061599 	4302 	0.059965
34.15 	0.055645 	4331 	0.054969
34.19 	0.054333 	4362 	0.053661
34.23 	0.056909 	4393 	0.056109
34.27 	0.057440 	4422 	0.056645
34.31 	0.052939 	4458 	0.051099
34.35 	0.055085 	4484 	0.054432
34.39 	0.048645 	4502 	0.047322
34.43 	0.059264 	4539 	0.058210
34.47 	0.061847 	4592 	0.060954
34.51 	0.062310 	4606 	0.061038
34.55 	0.054706 	4643 	0.054201
34.59 	0.062032 	4675 	0.060904
34.63 	0.060934 	4710 	0.059815
34.67 	0.055474 	4741 	0.054588
34.71 	0.061267 	4766 	0.060284
34.75 	0.057820 	4808 	0.056967
34.79 	0.053690 	4824 	0.052840
34.83 	0.057178 	4862 	0.056335
34.87 	0.056081 	4868 	0.054637
34.91 	0.056944 	4882 	0.055984
34.95 	0.052965 	4890 	0.052366
34.99 	0.052481 	4897 	0.051763
35.03 	0.057253 	4943 	0.056423
35.07 	0.057085 	4940 	0.055662
35.11 	0.056802 	4947 	0.055736
35.15 	0.057120 	4937 	0.056526
35.19 	0.061716 	4942 	0.060412
35.23 	0.055410 	4945 	0.054324
35.27 	0.054365 	4948 	0.053892
35.31 	0.053720 	4933 	0.053007
35.35 	0.060704 	4942 	0.060230
35.39 	0.060870 	4945 	0.060001
35.43 	0.060815 	4933 	0.059252
35.47 	0.061854 	4931 	0.060309
35.51 	0.061916 	4926 	0.061084
35.55 	0.056623 	4945 	0.055557
35.59 	0.060263 	4945 	0.058329
35.63 	0.060894 	4943 	0.059690
35.67 	0.061514 	4942 	0.060190
35.71 	0.058538 	4937 	0.057232
35.75 	0.061448 	4931 	0.060735
35.79 	0.054947 	4932 	0.054116
35.83 	0.056005 	4946 	0.055176
35.87 	0.056267 	4923 	0.055315
35.91 	0.055003 	4927 	0.053457
35.95 	0.057962 	4917 	0.056632
35.99 	0.056084 	4939 	0.055353
36.03 	0.060085 	4943 	0.059137
36.07 	0.063373 	4939 	0.062306
36.11 	0.061270 	4929 	0.060438
36.15 	0.058919 	4939 	0.057851
36.19 	0.056073 	4940 	0.054768
36.23 	0.059980 	4935 	0.059268
36.27 	0.058883 	4925 	0.058407
36.31 	0.061688 	4928 	0.060856
36.35 	0.066139 	4929 	0.063842
36.39 	0.060557 	4921 	0.059604
36.43 	0.063718 	4928 	0.062885
36.47 	0.061588 	4936 	0.060402
36.51 	0.059193 	4933 	0.057649
36.55 	0.057845 	4927 	0.057250
36.59 	0.054262 	4939 	0.053432
36.63 	0.064287 	4931 	0.062980
36.67 	0.067343 	4930 	0.066273
36.71 	0.062589 	4921 	0.061399
36.75 	0.056230 	4944 	0.055163
36.79 	0.061166 	4921 	0.060195
36.83 	0.059207 	4915 	0.058253
36.87 	0.068770 	4944 	0.067230
36.91 	0.061121 	4941 	0.059936
36.95 	0.056355 	4933 	0.054911
36.99 	0.056535 	4935 	0.055823
37.03 	0.062145 	4924 	0.061074
37.07 	0.058967 	4935 	0.057879
37.11 	0.058764 	4935 	0.057933
37.15 	0.058668 	4909 	0.057236
37.19 	0.057056 	4925 	0.055866
37.23 	0.056324 	4918 	0.055013
37.27 	0.056600 	4894 	0.055523
37.31 	0.060588 	4935 	0.060113
37.35 	0.055691 	4938 	0.054504
37.39 	0.056986 	4931 	0.056155
37.43 	0.060219 	4932 	0.059249
37.47 	0.054575 	4929 	0.054100
37.51 	0.056761 	4933 	0.055692
37.55 	0.060852 	4930 	0.059901
37.59 	0.060427 	4915 	0.059474
37.63 	0.055092 	4919 	0.054259
37.67 	0.058728 	4904 	0.057533
37.71 	0.053358 	4929 	0.052288
37.75 	0.058704 	4940 	0.057874
37.79 	0.054361 	4930 	0.053648
37.83 	0.051423 	4920 	0.050470
37.87 	0.053250 	4939 	0.051826
37.91 	0.052941 	4930 	0.052347
37.95 	0.052632 	4921 	0.052036
37.99 	0.050896 	4912 	0.050061
38.03 	0.055001 	4909 	0.054166
38.07 	0.059279 	4909 	0.058324
38.11 	0.057345 	4935 	0.055902
38.15 	0.055510 	4918 	0.054438
38.19 	0.058012 	4930 	0.056943
38.23 	0.063183 	4938 	0.061503
38.27 	0.054767 	4930 	0.054054
38.31 	0.062919 	4927 	0.062086
38.35 	0.057224 	4928 	0.056154
38.39 	0.067223 	4909 	0.066150
38.43 	0.065907 	4916 	0.065192
38.47 	0.067455 	4907 	0.065406
38.51 	0.062044 	4932 	0.060737
38.55 	0.075162 	4936 	0.073738
38.59 	0.080626 	4924 	0.079416
38.63 	0.073517 	4924 	0.071852
38.67 	0.070083 	4937 	0.068659
38.71 	0.083266 	4924 	0.081481
38.75 	0.072661 	4927 	0.071710
38.79 	0.082286 	4934 	0.080149
38.83 	0.080504 	4919 	0.078837
38.87 	0.076359 	4911 	0.074312
38.91 	0.071589 	4903 	0.069319
38.95 	0.068117 	4918 	0.066688
38.99 	0.061171 	4937 	0.059984
39.03 	0.052290 	4934 	0.050866
39.07 	0.057271 	4924 	0.056795
39.11 	0.049280 	4931 	0.048567
39.15 	0.046592 	4915 	0.045877
39.19 	0.052674 	4917 	0.051721
39.23 	0.044264 	4925 	0.043788
39.27 	0.044399 	4910 	0.043544
39.31 	0.053849 	4884 	0.053130
39.35 	0.048632 	4935 	0.048395
39.39 	0.044837 	4929 	0.044124
39.43 	0.048652 	4933 	0.047939
39.47 	0.043876 	4923 	0.043162
39.51 	0.048335 	4924 	0.047482
39.55 	0.051637 	4919 	0.050565
39.59 	0.043974 	4912 	0.043616
39.63 	0.045307 	4922 	0.044831
39.67 	0.046611 	4913 	0.046492
39.71 	0.044944 	4895 	0.044585
39.75 	0.043831 	4928 	0.043118
39.79 	0.047503 	4926 	0.047146
39.83 	0.048237 	4934 	0.047999
39.87 	0.047107 	4925 	0.046631
39.91 	0.043885 	4922 	0.042932
39.95 	0.045168 	4915 	0.044572
39.99 	0.046229 	4932 	0.045991
40.03 	0.046672 	4928 	0.045583
40.07 	0.039813 	4923 	0.039099
40.11 	0.040887 	4916 	0.040172
40.15 	0.041930 	4913 	0.041453
40.19 	0.037127 	4929 	0.037008
40.23 	0.044607 	4932 	0.043775
40.27 	0.040916 	4937 	0.040441
40.31 	0.043531 	4939 	0.042701
40.35 	0.044115 	4919 	0.043519
40.39 	0.033665 	4931 	0.033546
40.43 	0.041447 	4922 	0.040475
40.47 	0.043514 	4918 	0.042918
40.51 	0.039212 	4922 	0.038379
40.55 	0.037694 	4908 	0.037336
40.59 	0.038080 	4937 	0.037605
40.63 	0.049493 	4930 	0.049136
40.67 	0.041768 	4932 	0.041412
40.71 	0.039943 	4932 	0.039112
40.75 	0.040560 	4931 	0.040203
40.79 	0.044273 	4924 	0.043678
40.83 	0.037744 	4928 	0.036793
40.87 	0.043222 	4928 	0.042985
40.91 	0.041235 	4923 	0.040521
40.95 	0.043558 	4913 	0.042604
40.99 	0.039602 	4924 	0.039483
41.03 	0.042202 	4905 	0.041485
41.07 	0.044219 	4930 	0.043863
41.11 	0.041743 	4935 	0.041387
41.15 	0.041692 	4941 	0.041218
41.19 	0.041988 	4930 	0.041394
41.23 	0.043734 	4939 	0.043141
41.27 	0.037112 	4931 	0.036281
41.31 	0.039530 	4933 	0.039055
41.35 	0.040907 	4938 	0.040433
41.39 	0.048449 	4933 	0.047855
41.43 	0.043619 	4929 	0.043382
41.47 	0.039586 	4926 	0.039110
41.51 	0.043725 	4940 	0.043013
41.55 	0.038906 	4935 	0.038550
41.59 	0.043584 	4933 	0.043109
41.63 	0.040502 	4938 	0.040028
41.67 	0.045547 	4940 	0.044479
41.71 	0.043981 	4934 	0.043506
41.75 	0.036519 	4929 	0.036162
41.79 	0.042476 	4944 	0.042120
41.83 	0.042817 	4928 	0.042579
41.87 	0.037487 	4935 	0.037131
41.91 	0.038898 	4936 	0.038779
41.95 	0.039749 	4931 	0.039491
41.99 	0.037105 	4905 	0.036986
42.03 	0.045353 	4939 	0.044760
42.07 	0.041928 	4937 	0.041454
42.11 	0.040040 	4945 	0.039192
42.15 	0.042527 	4938 	0.042171
42.19 	0.038916 	4908 	0.038797
42.23 	0.038430 	4892 	0.038310
42.27 	0.037136 	4874 	0.037016
42.31 	0.039341 	4855 	0.038858
42.35 	0.035965 	4838 	0.035965
42.39 	0.043714 	4804 	0.043348
42.43 	0.037980 	4792 	0.037735
42.47 	0.041133 	4765 	0.040130
42.51 	0.038794 	4743 	0.038671
42.55 	0.042693 	4708 	0.042320
42.59 	0.041023 	4729 	0.040404
42.63 	0.044808 	4709 	0.044310
42.67 	0.034799 	4684 	0.034174
42.71 	0.040317 	4663 	0.039438
42.75 	0.034005 	4617 	0.033878
42.79 	0.034046 	4582 	0.033791
42.83 	0.039021 	4536 	0.039021
42.87 	0.041120 	4499 	0.040730
42.91 	0.037478 	4456 	0.036689
42.95 	0.039855 	4416 	0.039324
42.99 	0.035576 	4385 	0.035041
43.03 	0.034618 	4333 	0.034348
43.07 	0.036313 	4296 	0.036040
43.11 	0.041128 	4255 	0.040440
43.15 	0.036852 	4206 	0.036434
43.19 	0.038865 	4194 	0.038283
43.23 	0.039480 	4154 	0.039057
43.27 	0.039951 	4105 	0.039238
43.31 	0.035548 	4079 	0.035117
43.35 	0.043651 	4032 	0.043506
43.39 	0.033983 	4002 	0.033544
43.43 	0.031818 	3960 	0.031522
43.47 	0.038001 	3921 	0.037254
43.51 	0.034563 	3877 	0.033958
43.55 	0.028003 	2964 	0.028003
43.59 	0.041237 	1746 	0.040902
43.63 	0.027972 	1001 	0.027972
43.67 	0.039841 	502 	0.038674
43.71 	0.054393 	239 	0.054393
43.75 	0.000000 	16 	0.000000