File: Example_Data/25SC_s1_0048.000.dat
#F C:\frames\spec\25SC_s1_0048.000
#C title =s:48 frm:0 25SC_s1
#C wavelength =0.15406

#S 1  fr_average C:\frames\spec\25SC_s1_0048.000 C:\win32app\speccom\mask.axs chi 0 180 0 360 0.02
#C 2 theta =0.000000 to 180 deg
#C   q   =0.000000 to 81.568 nm^-1
#C  chi  =0.000000 to 360 deg
#C collumns:
#C  1 position (2theta or chi in degrees)
#C  2 average intensity (sum of all counts in the region divided with number of pixels)
#C  3 Number of pixels in region)
#C  4 error (sum of sqrt(intensity) for all pixels divided by number)
#N 4
#L TTh  Int  N_pix  Err
32.99 	0.065574 	61 	0.065574
33.03 	0.061107 	1391 	0.059844
33.07 	0.069756 	2050 	0.068899
33.11 	0.061264 	2579 	0.060583
33.15 	0.065355 	2999 	0.064574
33.19 	0.060443 	3342 	0.059216
33.23 	0.061879 	3523 	0.060854
33.27 	0.057300 	3630 	0.056493
33.31 	0.056831 	3660 	0.056190
33.35 	0.063346 	3694 	0.062395
33.39 	0.060874 	3729 	0.059932
33.43 	0.057697 	3761 	0.056451
33.47 	0.057399 	3798 	0.056627
33.51 	0.057667 	3815 	0.056746
33.55 	0.068957 	3843 	0.066950
33.59 	0.058763 	3880 	0.057555
33.63 	0.052054 	3919 	0.051755
33.67 	0.061457 	3954 	0.059679
33.71 	0.055597 	3975 	0.054247
33.75 	0.057764 	3999 	0.056568
33.79 	0.057659 	4041 	0.057079
33.83 	0.056543 	4050 	0.055675
33.87 	0.058380 	4111 	0.058237
33.91 	0.054230 	4149 	0.053100
33.95 	0.056207 	4181 	0.055366
33.99 	0.059048 	4200 	0.057653
34.03 	0.058200 	4244 	0.056958
34.07 	0.067479 	4268 	0.066655
34.11 	0.058113 	4302 	0.057432
34.15 	0.053106 	4331 	0.052565
34.19 	0.060064 	4362 	0.058453
34.23 	0.058047 	4393 	0.057247
34.27 	0.054726 	4422 	0.053534
34.31 	0.058995 	4458 	0.057681
34.35 	0.054416 	4484 	0.053349
34.39 	0.055753 	4502 	0.054409
34.43 	0.062789 	4539 	0.062015
34.47 	0.058362 	4592 	0.057597
34.51 	0.057099 	4606 	0.056209
34.55 	0.055998 	4643 	0.055620
34.59 	0.062032 	4675 	0.060654
34.63 	0.050743 	4710 	0.050743
34.67 	0.060747 	4741 	0.060005
34.71 	0.058959 	4766 	0.058345
34.75 	0.060732 	4808 	0.059372
34.79 	0.052861 	4824 	0.052132
34.83 	0.055738 	4862 	0.054534
34.87 	0.053410 	4868 	0.052207
34.91 	0.058787 	4882 	0.056988
34.95 	0.059305 	4890 	0.058466
34.99 	0.056361 	4897 	0.055165
35.03 	0.050779 	4943 	0.049712
35.07 	0.051619 	4940 	0.051027
35.11 	0.066909 	4947 	0.065844
35.15 	0.056512 	4937 	0.055800
35.19 	0.060704 	4942 	0.059519
35.23 	0.057634 	4945 	0.056449
35.27 	0.060833 	4948 	0.059886
35.31 	0.056152 	4933 	0.054727
35.35 	0.057669 	4942 	0.057076
35.39 	0.054196 	4945 	0.053111
35.43 	0.058788 	4933 	0.057838
35.47 	0.057595 	4931 	0.056526
35.51 	0.057450 	4926 	0.056360
35.55 	0.060667 	4945 	0.059364
35.59 	0.051972 	4945 	0.051024
35.63 	0.054623 	4943 	0.053793
35.67 	0.061716 	4942 	0.060274
35.71 	0.056917 	4937 	0.056087
35.75 	0.058203 	4931 	0.057609
35.79 	0.056975 	4932 	0.055787
35.83 	0.056005 	4946 	0.054801
35.87 	0.052610 	4923 	0.051896
35.91 	0.055612 	4927 	0.054522
35.95 	0.060606 	4917 	0.059415
35.99 	0.059324 	4939 	0.058612
36.03 	0.060085 	4943 	0.058189
36.07 	0.057299 	4939 	0.056943
36.11 	0.057618 	4929 	0.055954
36.15 	0.060741 	4939 	0.059792
36.19 	0.060931 	4940 	0.060220
36.23 	0.057345 	4935 	0.056396
36.27 	0.056853 	4925 	0.056258
36.31 	0.056818 	4928 	0.056224
36.35 	0.059444 	4929 	0.058256
36.39 	0.062386 	4921 	0.061552
36.43 	0.061282 	4928 	0.060213
36.47 	0.056524 	4936 	0.055693
36.51 	0.059599 	4933 	0.059005
36.55 	0.056830 	4927 	0.056235
36.59 	0.052642 	4939 	0.052049
36.63 	0.056175 	4931 	0.055462
36.67 	0.055781 	4930 	0.054593
36.71 	0.057712 	4921 	0.056383
36.75 	0.055016 	4944 	0.053594
36.79 	0.059338 	4921 	0.058366
36.83 	0.061445 	4915 	0.060352
36.87 	0.065939 	4944 	0.064280
36.91 	0.059097 	4941 	0.058149
36.95 	0.061829 	4933 	0.059810
36.99 	0.062411 	4935 	0.060631
37.03 	0.061738 	4924 	0.061263
37.07 	0.051469 	4935 	0.050994
37.11 	0.055724 	4935 	0.055111
37.15 	0.062946 	4909 	0.061633
37.19 	0.056447 	4925 	0.055733
37.23 	0.057747 	4918 	0.056794
37.27 	0.062526 	4894 	0.061688
37.31 	0.057548 	4935 	0.056480
37.35 	0.054273 	4938 	0.053680
37.39 	0.059826 	4931 	0.058756
37.43 	0.053933 	4932 	0.053201
37.47 	0.060459 	4929 	0.059389
37.51 	0.059599 	4933 	0.059005
37.55 	0.055375 	4930 	0.054306
37.59 	0.058800 	4915 	0.057727
37.63 	0.059362 	4919 	0.058647
37.67 	0.055669 	4904 	0.055072
37.71 	0.055386 	4929 	0.054079
37.75 	0.054251 	4940 	0.053164
37.79 	0.058621 	4930 	0.057551
37.83 	0.058130 	4920 	0.056939
37.87 	0.057299 	4939 	0.056469
37.91 	0.053955 	4930 	0.053124
37.95 	0.056899 	4921 	0.056185
37.99 	0.054764 	4912 	0.053571
38.03 	0.050519 	4909 	0.050042
38.07 	0.056223 	4909 	0.055149
38.11 	0.064843 	4935 	0.063537
38.15 	0.056324 	4918 	0.055609
38.19 	0.057404 	4930 	0.056572
38.23 	0.069866 	4938 	0.067593
38.27 	0.067546 	4930 	0.066239
38.31 	0.073879 	4927 	0.072452
38.35 	0.076907 	4928 	0.075461
38.39 	0.085965 	4909 	0.082803
38.43 	0.077095 	4916 	0.074901
38.47 	0.083147 	4907 	0.081356
38.51 	0.080697 	4932 	0.078896
38.55 	0.088533 	4936 	0.086378
38.59 	0.071893 	4924 	0.070346
38.63 	0.072908 	4924 	0.071719
38.67 	0.070893 	4937 	0.069707
38.71 	0.063160 	4924 	0.061732
38.75 	0.058453 	4927 	0.056670
38.79 	0.059587 	4934 	0.058755
38.83 	0.046757 	4919 	0.045666
38.87 	0.047241 	4911 	0.046764
38.91 	0.047114 	4903 	0.046756
38.95 	0.045750 	4918 	0.045036
38.99 	0.054487 	4937 	0.054012
39.03 	0.047021 	4934 	0.046546
39.07 	0.049350 	4924 	0.048279
39.11 	0.047252 	4931 	0.046658
39.15 	0.053306 	4915 	0.052949
39.19 	0.052268 	4917 	0.051553
39.23 	0.049137 	4925 	0.048661
39.27 	0.048473 	4910 	0.048115
39.31 	0.045045 	4884 	0.044925
39.35 	0.046809 	4935 	0.046334
39.39 	0.050112 	4929 	0.049399
39.43 	0.040746 	4933 	0.040746
39.47 	0.042454 	4923 	0.042335
39.51 	0.049147 	4924 	0.048790
39.55 	0.046757 	4919 	0.045924
39.59 	0.046010 	4912 	0.045533
39.63 	0.042056 	4922 	0.041818
39.67 	0.041522 	4913 	0.040926
39.71 	0.050255 	4895 	0.049418
39.75 	0.044237 	4928 	0.043524
39.79 	0.045676 	4926 	0.044963
39.83 	0.047629 	4934 	0.046441
39.87 	0.042640 	4925 	0.041926
39.91 	0.044900 	4922 	0.044424
39.95 	0.044354 	4915 	0.043758
39.99 	0.046837 	4932 	0.045986
40.03 	0.044440 	4928 	0.043846
40.07 	0.042048 	4923 	0.040977
40.11 	0.041090 	4916 	0.039998
40.15 	0.045390 	4913 	0.044794
40.19 	0.044431 	4929 	0.043956
40.23 	0.043593 	4932 	0.042880
40.27 	0.038890 	4937 	0.038534
40.31 	0.039482 	4939 	0.038889
40.35 	0.046961 	4919 	0.046008
40.39 	0.043399 	4931 	0.042567
40.43 	0.038805 	4922 	0.038210
40.47 	0.047580 	4918 	0.046985
40.51 	0.045104 	4922 	0.044509
40.55 	0.036064 	4908 	0.035825
40.59 	0.041523 	4937 	0.041049
40.63 	0.041785 	4930 	0.040716
40.67 	0.042579 	4932 	0.041985
40.71 	0.045012 	4932 	0.044300
40.75 	0.035693 	4931 	0.035574
40.79 	0.043664 	4924 	0.043188
40.83 	0.036932 	4928 	0.036456
40.87 	0.041396 	4928 	0.040683
40.91 	0.050579 	4923 	0.049746
40.95 	0.042744 	4913 	0.042028
40.99 	0.042039 	4924 	0.041920
41.03 	0.041590 	4905 	0.040635
41.07 	0.045233 	4930 	0.044639
41.11 	0.037893 	4935 	0.037299
41.15 	0.038859 	4941 	0.038266
41.19 	0.043002 	4930 	0.042289
41.23 	0.041911 	4939 	0.041437
41.27 	0.044007 	4931 	0.043532
41.31 	0.041557 	4933 	0.041082
41.35 	0.044552 	4938 	0.044197
41.39 	0.041760 	4933 	0.040691
41.43 	0.034084 	4929 	0.033252
41.47 	0.044255 	4926 	0.043779
41.51 	0.040688 	4940 	0.040333
41.55 	0.042553 	4935 	0.041960
41.59 	0.044800 	4933 	0.044207
41.63 	0.043337 	4938 	0.042863
41.67 	0.043522 	4940 	0.042929
41.71 	0.039927 	4934 	0.039927
41.75 	0.038750 	4929 	0.038037
41.79 	0.038835 	4944 	0.038124
41.83 	0.039773 	4928 	0.039416
41.87 	0.040122 	4935 	0.039765
41.91 	0.034643 	4936 	0.034149
41.95 	0.038735 	4931 	0.038497
41.99 	0.043017 	4905 	0.042659
42.03 	0.036850 	4939 	0.036375
42.07 	0.037877 	4937 	0.037165
42.11 	0.042872 	4945 	0.042635
42.15 	0.038072 	4938 	0.037835
42.19 	0.042787 	4908 	0.042429
42.23 	0.036386 	4892 	0.036146
42.27 	0.038162 	4874 	0.037921
42.31 	0.037281 	4855 	0.036799
42.35 	0.044853 	4838 	0.044490
42.39 	0.041840 	4804 	0.041596
42.43 	0.039232 	4792 	0.038988
42.47 	0.041973 	4765 	0.041358
42.51 	0.040481 	4743 	0.039863
42.55 	0.043118 	4708 	0.042102
42.59 	0.038063 	4729 	0.037691
42.63 	0.032703 	4709 	0.032330
42.67 	0.040564 	4684 	0.040314
42.71 	0.041175 	4663 	0.040924
42.75 	0.036171 	4617 	0.036171
42.79 	0.045395 	4582 	0.045011
42.83 	0.038801 	4536 	0.038672
42.87 	0.045788 	4499 	0.045007
42.91 	0.039048 	4456 	0.038501
42.95 	0.043931 	4416 	0.043666
42.99 	0.037400 	4385 	0.036866
43.03 	0.034387 	4333 	0.034252
43.07 	0.037709 	4296 	0.037437
43.11 	0.036193 	4255 	0.035917
43.15 	0.039230 	4206 	0.038812
43.19 	0.047926 	4194 	0.047227
43.23 	0.036110 	4154 	0.035546
43.27 	0.036784 	4105 	0.036356
43.31 	0.038000 	4079 	0.037569
43.35 	0.035714 	4032 	0.035278
43.39 	0.036232 	4002 	0.035646
43.43 	0.037121 	3960 	0.036530
43.47 	0.038001 	3921 	0.037552
43.51 	0.036626 	3877 	0.036475
43.55 	0.042848 	2964 	0.042452
43.59 	0.048683 	1746 	0.048012
43.63 	0.051948 	1001 	0.050778
43.67 	0.021912 	502 	0.021912
43.71 	0.029289 	239 	0.029289
43.75 	0.000000 	16 	0.000000