File: Example_Data/25SC_s1_0029.002.dat
#F C:\frames\spec\25SC_s1_0029.002
#C title =s:29 frm:2 25SC_s1
#C wavelength =0.15406

#S 1  fr_average C:\frames\spec\25SC_s1_0029.002 C:\win32app\speccom\mask.axs chi 0 180 0 360 0.02
#C 2 theta =0.000000 to 180 deg
#C   q   =0.000000 to 81.568 nm^-1
#C  chi  =0.000000 to 360 deg
#C collumns:
#C  1 position (2theta or chi in degrees)
#C  2 average intensity (sum of all counts in the region divided with number of pixels)
#C  3 Number of pixels in region)
#C  4 error (sum of sqrt(intensity) for all pixels divided by number)
#N 4
#L TTh  Int  N_pix  Err
32.99 	0.065574 	61 	0.065574
33.03 	0.053918 	1391 	0.053497
33.07 	0.055610 	2050 	0.054753
33.11 	0.054672 	2579 	0.053537
33.15 	0.056352 	2999 	0.055766
33.19 	0.057750 	3342 	0.056873
33.23 	0.065853 	3523 	0.064523
33.27 	0.054545 	3630 	0.054061
33.31 	0.056284 	3660 	0.054977
33.35 	0.057120 	3694 	0.056803
33.39 	0.056315 	3729 	0.054744
33.43 	0.060090 	3761 	0.058689
33.47 	0.061875 	3798 	0.060487
33.51 	0.057929 	3815 	0.057161
33.55 	0.060630 	3843 	0.060325
33.59 	0.055155 	3880 	0.053796
33.63 	0.059709 	3919 	0.058962
33.67 	0.055387 	3954 	0.054350
33.71 	0.059623 	3975 	0.059475
33.75 	0.060515 	3999 	0.060222
33.79 	0.059639 	4041 	0.058914
33.83 	0.053333 	4050 	0.052466
33.87 	0.059596 	4111 	0.059169
33.91 	0.058568 	4149 	0.056992
33.95 	0.059077 	4181 	0.058656
33.99 	0.058810 	4200 	0.057833
34.03 	0.052780 	4244 	0.051952
34.07 	0.055530 	4268 	0.054843
34.11 	0.061367 	4302 	0.060550
34.15 	0.058647 	4331 	0.057700
34.19 	0.063274 	4362 	0.061931
34.23 	0.060779 	4393 	0.060112
34.27 	0.062189 	4422 	0.061394
34.31 	0.055406 	4458 	0.054355
34.35 	0.058430 	4484 	0.057907
34.39 	0.056641 	4502 	0.055861
34.43 	0.055299 	4539 	0.054266
34.47 	0.057491 	4592 	0.056981
34.51 	0.051238 	4606 	0.050347
34.55 	0.056429 	4643 	0.055041
34.59 	0.059465 	4675 	0.058463
34.63 	0.052229 	4710 	0.051359
34.67 	0.051255 	4741 	0.049772
34.71 	0.060428 	4766 	0.058830
34.75 	0.059276 	4808 	0.058302
34.79 	0.054104 	4824 	0.053254
34.83 	0.051419 	4862 	0.050696
34.87 	0.060189 	4868 	0.058725
34.91 	0.059812 	4882 	0.058972
34.95 	0.058487 	4890 	0.056929
34.99 	0.055748 	4897 	0.054433
35.03 	0.060692 	4943 	0.059033
35.07 	0.052024 	4940 	0.051313
35.11 	0.055387 	4947 	0.054913
35.15 	0.057930 	4937 	0.056862
35.19 	0.056657 	4942 	0.056164
35.23 	0.056218 	4945 	0.055271
35.27 	0.062449 	4948 	0.061029
35.31 	0.057571 	4933 	0.056265
35.35 	0.052813 	4942 	0.052101
35.39 	0.059656 	4945 	0.058709
35.43 	0.062639 	4933 	0.060858
35.47 	0.054756 	4931 	0.053667
35.51 	0.052172 	4926 	0.051578
35.55 	0.052983 	4945 	0.052489
35.59 	0.050556 	4945 	0.050319
35.63 	0.061906 	4943 	0.060958
35.67 	0.057669 	4942 	0.056958
35.71 	0.054487 	4937 	0.053656
35.75 	0.051714 	4931 	0.050407
35.79 	0.061233 	4932 	0.060164
35.83 	0.057622 	4946 	0.056320
35.87 	0.052407 	4923 	0.051217
35.91 	0.054191 	4927 	0.053121
35.95 	0.064063 	4917 	0.063230
35.99 	0.061551 	4939 	0.060602
36.03 	0.054825 	4943 	0.053877
36.07 	0.054869 	4939 	0.053802
36.11 	0.047068 	4929 	0.046712
36.15 	0.056894 	4939 	0.055333
36.19 	0.056073 	4940 	0.055361
36.23 	0.059777 	4935 	0.059065
36.27 	0.059289 	4925 	0.058338
36.31 	0.056412 	4928 	0.055224
36.35 	0.059241 	4929 	0.058152
36.39 	0.051209 	4921 	0.049900
36.43 	0.054383 	4928 	0.053670
36.47 	0.057739 	4936 	0.057146
36.51 	0.053720 	4933 	0.053007
36.55 	0.056018 	4927 	0.055186
36.59 	0.054262 	4939 	0.053788
36.63 	0.058609 	4931 	0.057421
36.67 	0.060446 	4930 	0.059377
36.71 	0.052632 	4921 	0.051203
36.75 	0.056230 	4944 	0.055400
36.79 	0.050803 	4921 	0.050069
36.83 	0.052289 	4915 	0.051574
36.87 	0.057241 	4944 	0.056056
36.91 	0.049787 	4941 	0.048958
36.95 	0.052301 	4933 	0.051707
36.99 	0.049240 	4935 	0.048528
37.03 	0.051584 	4924 	0.050751
37.07 	0.051672 	4935 	0.051078
37.11 	0.056130 	4935 	0.055536
37.15 	0.056223 	4909 	0.055249
37.19 	0.052792 	4925 	0.051721
37.23 	0.058560 	4918 	0.057469
37.27 	0.057213 	4894 	0.055517
37.31 	0.050051 	4935 	0.049220
37.35 	0.054273 	4938 	0.053205
37.39 	0.054147 	4931 	0.053197
37.43 	0.054136 	4932 	0.053305
37.47 	0.048083 	4929 	0.047607
37.51 	0.051490 	4933 	0.050421
37.55 	0.050913 	4930 	0.050061
37.59 	0.050051 	4915 	0.049455
37.63 	0.049604 	4919 	0.048651
37.67 	0.053018 	4904 	0.051823
37.71 	0.051126 	4929 	0.050532
37.75 	0.047571 	4940 	0.046741
37.79 	0.049899 	4930 	0.049542
37.83 	0.049187 	4920 	0.048592
37.87 	0.055679 	4939 	0.054730
37.91 	0.052333 	4930 	0.051739
37.95 	0.049380 	4921 	0.048309
37.99 	0.050285 	4912 	0.049450
38.03 	0.055612 	4909 	0.055015
38.07 	0.050519 	4909 	0.049684
38.11 	0.051874 	4935 	0.050925
38.15 	0.056324 	4918 	0.055609
38.19 	0.052535 	4930 	0.051704
38.23 	0.055691 	4938 	0.054485
38.27 	0.058215 	4930 	0.056869
38.31 	0.053988 	4927 	0.052423
38.35 	0.060877 	4928 	0.059926
38.39 	0.055408 	4909 	0.054573
38.43 	0.065704 	4916 	0.064393
38.47 	0.060933 	4907 	0.059620
38.51 	0.061436 	4932 	0.060367
38.55 	0.064019 	4936 	0.062833
38.59 	0.053209 	4924 	0.052257
38.63 	0.057880 	4924 	0.057285
38.67 	0.059145 	4937 	0.058315
38.71 	0.057474 	4924 	0.056879
38.75 	0.052567 	4927 	0.052092
38.79 	0.053912 	4934 	0.052962
38.83 	0.057939 	4919 	0.056867
38.87 	0.051517 	4911 	0.050443
38.91 	0.049358 	4903 	0.048760
38.95 	0.044124 	4918 	0.043885
38.99 	0.048410 	4937 	0.047817
39.03 	0.048845 	4934 	0.048370
39.07 	0.047522 	4924 	0.046690
39.11 	0.049077 	4931 	0.048008
39.15 	0.045371 	4915 	0.044775
39.19 	0.044539 	4917 	0.044420
39.23 	0.049137 	4925 	0.048186
39.27 	0.047862 	4910 	0.047484
39.31 	0.045250 	4884 	0.044890
39.35 	0.046606 	4935 	0.045656
39.39 	0.049503 	4929 	0.048909
39.43 	0.046422 	4933 	0.046185
39.47 	0.048954 	4923 	0.048716
39.51 	0.043461 	4924 	0.042033
39.55 	0.052246 	4919 	0.051294
39.59 	0.044788 	4912 	0.043834
39.63 	0.043478 	4922 	0.043240
39.67 	0.050478 	4913 	0.049405
39.71 	0.051073 	4895 	0.050355
39.75 	0.048093 	4928 	0.047855
39.79 	0.044255 	4926 	0.043660
39.83 	0.042967 	4934 	0.042611
39.87 	0.044873 	4925 	0.044397
39.91 	0.045104 	4922 	0.043913
39.95 	0.043744 	4915 	0.042771
39.99 	0.041363 	4932 	0.041006
40.03 	0.044237 	4928 	0.043999
40.07 	0.043673 	4923 	0.043435
40.11 	0.046379 	4916 	0.045903
40.15 	0.048850 	4913 	0.048135
40.19 	0.043417 	4929 	0.043179
40.23 	0.046634 	4932 	0.046397
40.27 	0.036054 	4937 	0.035679
40.31 	0.044948 	4939 	0.043881
40.35 	0.043911 	4919 	0.043673
40.39 	0.044210 	4931 	0.043735
40.43 	0.043072 	4922 	0.042596
40.47 	0.044530 	4918 	0.043816
40.51 	0.035351 	4922 	0.034975
40.55 	0.041972 	4908 	0.041734
40.59 	0.041118 	4937 	0.040999
40.63 	0.044828 	4930 	0.044709
40.67 	0.036699 	4932 	0.036343
40.71 	0.044809 	4932 	0.043978
40.75 	0.044210 	4931 	0.043735
40.79 	0.044070 	4924 	0.043832
40.83 	0.042208 	4928 	0.041970
40.87 	0.038149 	4928 	0.037555
40.91 	0.046313 	4923 	0.045361
40.95 	0.033991 	4913 	0.033872
40.99 	0.046913 	4924 	0.046437
41.03 	0.042202 	4905 	0.041366
41.07 	0.040568 	4930 	0.040093
41.11 	0.043566 	4935 	0.043092
41.15 	0.043311 	4941 	0.042600
41.19 	0.039351 	4930 	0.038757
41.23 	0.039887 	4939 	0.039294
41.27 	0.042588 	4931 	0.041994
41.31 	0.043179 	4933 	0.042704
41.35 	0.041717 	4938 	0.041243
41.39 	0.041760 	4933 	0.041166
41.43 	0.035707 	4929 	0.035331
41.47 	0.035120 	4926 	0.034525
41.51 	0.043725 	4940 	0.043132
41.55 	0.038501 	4935 	0.038263
41.59 	0.040949 	4933 	0.039979
41.63 	0.041312 	4938 	0.040956
41.67 	0.038866 	4940 	0.038511
41.71 	0.039319 	4934 	0.038844
41.75 	0.039156 	4929 	0.038562
41.79 	0.033576 	4944 	0.033221
41.83 	0.036120 	4928 	0.036120
41.87 	0.040729 	4935 	0.040373
41.91 	0.043355 	4936 	0.042999
41.95 	0.038126 	4931 	0.038007
41.99 	0.039348 	4905 	0.038989
42.03 	0.034015 	4939 	0.033541
42.07 	0.041726 	4937 	0.041370
42.11 	0.039232 	4945 	0.038995
42.15 	0.035237 	4938 	0.035118
42.19 	0.040342 	4908 	0.039746
42.23 	0.033933 	4892 	0.033813
42.27 	0.037751 	4874 	0.037150
42.31 	0.036663 	4855 	0.036181
42.35 	0.037205 	4838 	0.036600
42.39 	0.039342 	4804 	0.039220
42.43 	0.038815 	4792 	0.038570
42.47 	0.041553 	4765 	0.041061
42.51 	0.040270 	4743 	0.039776
42.55 	0.039082 	4708 	0.038958
42.59 	0.039543 	4729 	0.038800
42.63 	0.039286 	4709 	0.039038
42.67 	0.040137 	4684 	0.039491
42.71 	0.035385 	4663 	0.034882
42.75 	0.041802 	4617 	0.041421
42.79 	0.043867 	4582 	0.043739
42.83 	0.036596 	4536 	0.036080
42.87 	0.038675 	4499 	0.038415
42.91 	0.037478 	4456 	0.037346
42.95 	0.036911 	4416 	0.036381
42.99 	0.038084 	4385 	0.037550
43.03 	0.036695 	4333 	0.036154
43.07 	0.039804 	4296 	0.039395
43.11 	0.037133 	4255 	0.036444
43.15 	0.036852 	4206 	0.036852
43.19 	0.043872 	4194 	0.043453
43.23 	0.037554 	4154 	0.037272
43.27 	0.035323 	4105 	0.035037
43.31 	0.040941 	4079 	0.040654
43.35 	0.039187 	4032 	0.039187
43.39 	0.040730 	4002 	0.040437
43.43 	0.032071 	3960 	0.031627
43.47 	0.041826 	3921 	0.041378
43.51 	0.038690 	3877 	0.038539
43.55 	0.041161 	2964 	0.040370
43.59 	0.040664 	1746 	0.038987
43.63 	0.040959 	1001 	0.040959
43.67 	0.023904 	502 	0.023904
43.71 	0.058577 	239 	0.058577
43.75 	0.000000 	16 	0.000000