File: Example_Data/25SC_s1_0012.001.dat
#F C:\frames\spec\25SC_s1_0012.001
#C title =s:12 frm:1 25SC_s1
#C wavelength =0.15406

#S 1  fr_average C:\frames\spec\25SC_s1_0012.001 C:\win32app\speccom\mask.axs chi 0 180 0 360 0.02
#C 2 theta =0.000000 to 180 deg
#C   q   =0.000000 to 81.568 nm^-1
#C  chi  =0.000000 to 360 deg
#C collumns:
#C  1 position (2theta or chi in degrees)
#C  2 average intensity (sum of all counts in the region divided with number of pixels)
#C  3 Number of pixels in region)
#C  4 error (sum of sqrt(intensity) for all pixels divided by number)
#N 4
#L TTh  Int  N_pix  Err
32.99 	0.114754 	61 	0.114754
33.03 	0.078361 	1391 	0.077519
33.07 	0.058049 	2050 	0.057477
33.11 	0.064366 	2579 	0.063230
33.15 	0.060020 	2999 	0.058848
33.19 	0.061341 	3342 	0.059763
33.23 	0.055351 	3523 	0.053854
33.27 	0.059504 	3630 	0.057406
33.31 	0.063115 	3660 	0.062795
33.35 	0.063887 	3694 	0.062777
33.39 	0.056852 	3729 	0.055909
33.43 	0.067003 	3761 	0.065602
33.47 	0.053449 	3798 	0.052832
33.51 	0.061861 	3815 	0.060940
33.55 	0.054905 	3843 	0.053990
33.59 	0.051031 	3880 	0.050427
33.63 	0.059709 	3919 	0.058937
33.67 	0.063986 	3954 	0.063245
33.71 	0.062642 	3975 	0.061757
33.75 	0.049762 	3999 	0.049030
33.79 	0.055432 	4041 	0.053692
33.83 	0.060000 	4050 	0.059566
33.87 	0.056434 	4111 	0.055864
33.91 	0.056158 	4149 	0.055170
33.95 	0.055250 	4181 	0.054409
33.99 	0.053095 	4200 	0.052258
34.03 	0.058907 	4244 	0.058217
34.07 	0.054358 	4268 	0.053123
34.11 	0.055788 	4302 	0.054971
34.15 	0.054260 	4331 	0.053178
34.19 	0.056625 	4362 	0.055417
34.23 	0.056226 	4393 	0.055004
34.27 	0.056536 	4422 	0.055608
34.31 	0.059444 	4458 	0.058392
34.35 	0.058430 	4484 	0.057254
34.39 	0.052865 	4502 	0.052215
34.43 	0.058824 	4539 	0.057662
34.47 	0.052047 	4592 	0.051133
34.51 	0.054711 	4606 	0.054075
34.55 	0.060090 	4643 	0.058703
34.59 	0.057112 	4675 	0.055859
34.63 	0.055626 	4710 	0.054487
34.67 	0.056528 	4741 	0.055910
34.71 	0.056441 	4766 	0.055212
34.75 	0.052829 	4808 	0.052098
34.79 	0.057629 	4824 	0.056779
34.83 	0.052448 	4862 	0.051725
34.87 	0.060805 	4868 	0.059000
34.91 	0.051413 	4882 	0.050573
34.95 	0.052352 	4890 	0.051613
34.99 	0.051664 	4897 	0.051066
35.03 	0.057253 	4943 	0.056186
35.07 	0.064575 	4940 	0.063132
35.11 	0.053972 	4947 	0.053124
35.15 	0.049018 	4937 	0.048424
35.19 	0.058478 	4942 	0.057530
35.23 	0.059454 	4945 	0.058487
35.27 	0.056184 	4948 	0.055237
35.31 	0.059193 	4933 	0.058481
35.35 	0.055645 	4942 	0.054816
35.39 	0.056623 	4945 	0.055912
35.43 	0.062031 	4933 	0.061200
35.47 	0.065707 	4931 	0.064024
35.51 	0.062525 	4926 	0.061198
35.55 	0.059454 	4945 	0.058250
35.59 	0.055005 	4945 	0.053939
35.63 	0.059680 	4943 	0.058732
35.67 	0.055038 	4942 	0.053735
35.71 	0.061778 	4937 	0.060473
35.75 	0.058000 	4931 	0.057169
35.79 	0.057583 	4932 	0.056039
35.83 	0.054387 	4946 	0.053085
35.87 	0.065407 	4923 	0.063603
35.91 	0.057642 	4927 	0.056809
35.95 	0.051658 	4917 	0.050685
35.99 	0.055679 	4939 	0.054730
36.03 	0.058871 	4943 	0.058279
36.07 	0.055072 	4939 	0.054479
36.11 	0.056807 	4929 	0.055361
36.15 	0.066410 	4939 	0.064987
36.19 	0.058704 	4940 	0.057519
36.23 	0.060588 	4935 	0.059163
36.27 	0.062741 	4925 	0.061552
36.31 	0.053774 	4928 	0.052823
36.35 	0.059850 	4929 	0.058523
36.39 	0.061979 	4921 	0.059817
36.43 	0.060674 	4928 	0.059842
36.47 	0.055511 	4936 	0.054917
36.51 	0.060815 	4933 	0.059627
36.55 	0.061701 	4927 	0.060631
36.59 	0.057097 	4939 	0.056148
36.63 	0.053944 	4931 	0.052756
36.67 	0.058621 	4930 	0.057908
36.71 	0.061370 	4921 	0.060536
36.75 	0.056230 	4944 	0.055400
36.79 	0.059541 	4921 	0.058946
36.83 	0.065107 	4915 	0.064015
36.87 	0.063714 	4944 	0.063003
36.91 	0.062538 	4941 	0.061471
36.95 	0.058585 	4933 	0.057991
36.99 	0.060182 	4935 	0.059589
37.03 	0.066613 	4924 	0.065304
37.07 	0.060790 	4935 	0.059247
37.11 	0.059372 	4935 	0.058185
37.15 	0.056631 	4909 	0.055676
37.19 	0.055635 	4925 	0.054326
37.23 	0.056120 	4918 	0.055287
37.27 	0.058848 	4894 	0.057531
37.31 	0.066059 	4935 	0.065228
37.35 	0.062576 	4938 	0.061746
37.39 	0.056784 	4931 	0.055952
37.43 	0.063058 	4932 	0.061613
37.47 	0.061067 	4929 	0.059641
37.51 	0.051085 	4933 	0.050253
37.55 	0.059432 	4930 	0.058719
37.59 	0.053103 	4915 	0.052507
37.63 	0.056516 	4919 	0.055563
37.67 	0.060767 	4904 	0.060408
37.71 	0.057821 	4929 	0.056950
37.75 	0.058907 	4940 	0.058433
37.79 	0.054361 	4930 	0.053272
37.83 	0.060772 	4920 	0.059939
37.87 	0.050415 	4939 	0.049703
37.91 	0.056187 	4930 	0.055474
37.95 	0.053648 	4921 	0.053052
37.99 	0.060261 	4912 	0.059784
38.03 	0.052353 	4909 	0.051756
38.07 	0.054390 	4909 	0.053674
38.11 	0.053293 	4935 	0.052225
38.15 	0.055714 	4918 	0.054265
38.19 	0.051927 	4930 	0.050620
38.23 	0.059741 	4938 	0.058910
38.27 	0.055578 	4930 	0.054628
38.31 	0.055612 	4927 	0.055255
38.35 	0.059862 	4928 	0.059030
38.39 	0.058464 	4909 	0.057509
38.43 	0.062856 	4916 	0.061784
38.47 	0.065213 	4907 	0.064139
38.51 	0.063666 	4932 	0.062953
38.55 	0.073136 	4936 	0.071475
38.59 	0.068846 	4924 	0.067399
38.63 	0.070268 	4924 	0.068840
38.67 	0.073729 	4937 	0.072305
38.71 	0.075548 	4924 	0.074002
38.75 	0.078547 	4927 	0.077338
38.79 	0.074179 	4934 	0.072379
38.83 	0.061395 	4919 	0.060442
38.87 	0.067196 	4911 	0.065526
38.91 	0.065062 	4903 	0.064465
38.95 	0.062017 	4918 	0.060707
38.99 	0.054487 	4937 	0.053518
39.03 	0.053506 	4934 	0.052675
39.07 	0.049959 	4924 	0.049008
39.11 	0.057392 	4931 	0.056323
39.15 	0.052289 	4915 	0.051693
39.19 	0.045963 	4917 	0.045010
39.23 	0.047310 	4925 	0.046953
39.27 	0.047047 	4910 	0.046331
39.31 	0.042793 	4884 	0.041953
39.35 	0.049443 	4935 	0.048968
39.39 	0.037127 	4929 	0.036771
39.43 	0.042165 	4933 	0.041928
39.47 	0.050579 	4923 	0.050103
39.51 	0.044476 	4924 	0.044238
39.55 	0.044115 	4919 	0.043757
39.59 	0.044788 	4912 	0.044669
39.63 	0.043681 	4922 	0.042829
39.67 	0.042337 	4913 	0.041979
39.71 	0.047191 	4895 	0.046214
39.75 	0.047078 	4928 	0.046484
39.79 	0.045270 	4926 	0.044794
39.83 	0.048439 	4934 	0.047440
39.87 	0.046701 	4925 	0.045848
39.91 	0.043072 	4922 	0.042358
39.95 	0.040081 	4915 	0.039466
39.99 	0.043796 	4932 	0.043083
40.03 	0.043222 	4928 	0.042509
40.07 	0.040016 	4923 	0.039778
40.11 	0.045769 	4916 	0.045411
40.15 	0.044169 	4913 	0.043572
40.19 	0.042199 	4929 	0.041724
40.23 	0.042985 	4932 	0.042628
40.27 	0.043751 	4937 	0.043277
40.31 	0.042316 	4939 	0.041605
40.35 	0.041472 	4919 	0.040876
40.39 	0.044210 	4931 	0.043260
40.43 	0.044697 	4922 	0.044221
40.47 	0.045750 	4918 	0.045512
40.51 	0.043885 	4922 	0.043409
40.55 	0.039731 	4908 	0.039015
40.59 	0.042739 	4937 	0.042383
40.63 	0.040365 	4930 	0.040009
40.67 	0.046634 	4932 	0.045783
40.71 	0.040754 	4932 	0.040398
40.75 	0.047049 	4931 	0.046099
40.79 	0.040414 	4924 	0.040176
40.83 	0.046672 	4928 	0.045840
40.87 	0.038758 	4928 	0.038164
40.91 	0.039813 	4923 	0.039218
40.95 	0.042133 	4913 	0.041656
40.99 	0.041227 	4924 	0.040870
41.03 	0.041794 	4905 	0.041316
41.07 	0.043611 	4930 	0.043135
41.11 	0.047416 	4935 	0.046447
41.15 	0.040073 	4941 	0.039362
41.19 	0.040974 	4930 	0.040498
41.23 	0.038874 	4939 	0.038518
41.27 	0.039749 	4931 	0.039511
41.31 	0.043179 	4933 	0.042704
41.35 	0.043945 	4938 	0.043708
41.39 	0.037705 	4933 	0.037112
41.43 	0.043417 	4929 	0.043179
41.47 	0.043849 	4926 	0.042660
41.51 	0.041903 	4940 	0.041547
41.55 	0.043161 	4935 	0.042805
41.59 	0.043179 	4933 	0.042347
41.63 	0.040502 	4938 	0.039553
41.67 	0.043117 	4940 	0.042643
41.71 	0.040332 	4934 	0.039976
41.75 	0.047474 	4929 	0.046761
41.79 	0.039442 	4944 	0.039086
41.83 	0.042614 	4928 	0.041544
41.87 	0.042553 	4935 	0.041722
41.91 	0.047609 	4936 	0.047135
41.95 	0.039140 	4931 	0.039021
41.99 	0.038532 	4905 	0.038293
42.03 	0.037659 	4939 	0.037185
42.07 	0.039093 	4937 	0.038143
42.11 	0.038827 	4945 	0.038590
42.15 	0.038882 	4938 	0.038526
42.19 	0.038101 	4908 	0.037624
42.23 	0.037204 	4892 	0.036844
42.27 	0.039803 	4874 	0.038842
42.31 	0.039753 	4855 	0.039029
42.35 	0.039479 	4838 	0.039237
42.39 	0.042048 	4804 	0.041804
42.43 	0.038815 	4792 	0.037959
42.47 	0.043022 	4765 	0.042530
42.51 	0.040692 	4743 	0.040445
42.55 	0.042906 	4708 	0.042408
42.59 	0.038697 	4729 	0.038450
42.63 	0.034190 	4709 	0.034065
42.67 	0.035867 	4684 	0.035492
42.71 	0.042462 	4663 	0.041708
42.75 	0.041152 	4617 	0.040772
42.79 	0.041248 	4582 	0.040353
42.83 	0.039683 	4536 	0.039295
42.87 	0.039120 	4499 	0.038339
42.91 	0.040395 	4456 	0.039869
42.95 	0.041667 	4416 	0.040297
42.99 	0.046522 	4385 	0.046121
43.03 	0.037849 	4333 	0.037308
43.07 	0.039339 	4296 	0.039066
43.11 	0.037368 	4255 	0.036817
43.15 	0.043272 	4206 	0.042575
43.19 	0.042680 	4194 	0.041959
43.23 	0.037073 	4154 	0.036932
43.27 	0.038733 	4105 	0.038162
43.31 	0.040696 	4079 	0.040122
43.35 	0.040427 	4032 	0.039991
43.39 	0.039980 	4002 	0.039687
43.43 	0.041667 	3960 	0.041667
43.47 	0.041061 	3921 	0.040762
43.51 	0.042043 	3877 	0.041590
43.55 	0.033738 	2964 	0.033541
43.59 	0.043528 	1746 	0.043193
43.63 	0.030969 	1001 	0.029799
43.67 	0.029880 	502 	0.029880
43.71 	0.041841 	239 	0.041841
43.75 	0.062500 	16 	0.062500