File: Example_Data/25SC_s1_0033.001.dat
#F C:\frames\spec\25SC_s1_0033.001
#C title =s:33 frm:1 25SC_s1
#C wavelength =0.15406

#S 1  fr_average C:\frames\spec\25SC_s1_0033.001 C:\win32app\speccom\mask.axs chi 0 180 0 360 0.02
#C 2 theta =0.000000 to 180 deg
#C   q   =0.000000 to 81.568 nm^-1
#C  chi  =0.000000 to 360 deg
#C collumns:
#C  1 position (2theta or chi in degrees)
#C  2 average intensity (sum of all counts in the region divided with number of pixels)
#C  3 Number of pixels in region)
#C  4 error (sum of sqrt(intensity) for all pixels divided by number)
#N 4
#L TTh  Int  N_pix  Err
32.99 	0.081967 	61 	0.081967
33.03 	0.058231 	1391 	0.057810
33.07 	0.060976 	2050 	0.060690
33.11 	0.055836 	2579 	0.055836
33.15 	0.057019 	2999 	0.055652
33.19 	0.057750 	3342 	0.056698
33.23 	0.059608 	3523 	0.058583
33.27 	0.064187 	3630 	0.063219
33.31 	0.061475 	3660 	0.060515
33.35 	0.056037 	3694 	0.055403
33.39 	0.061679 	3729 	0.060736
33.43 	0.050784 	3761 	0.050006
33.47 	0.057925 	3798 	0.056357
33.51 	0.054522 	3815 	0.053140
33.55 	0.058288 	3843 	0.056916
33.59 	0.059536 	3880 	0.058177
33.63 	0.059709 	3919 	0.058214
33.67 	0.061963 	3954 	0.060777
33.71 	0.056604 	3975 	0.055425
33.75 	0.060765 	3999 	0.059716
33.79 	0.056917 	4041 	0.056047
33.83 	0.060741 	4050 	0.059294
33.87 	0.058866 	4111 	0.057727
33.91 	0.060979 	4149 	0.060131
33.95 	0.057403 	4181 	0.056422
33.99 	0.057619 	4200 	0.056224
34.03 	0.054430 	4244 	0.053326
34.07 	0.055061 	4268 	0.054375
34.11 	0.057183 	4302 	0.056502
34.15 	0.054029 	4331 	0.053488
34.19 	0.064420 	4362 	0.063346
34.23 	0.055771 	4393 	0.054837
34.27 	0.055631 	4422 	0.054439
34.31 	0.057873 	4458 	0.056822
34.35 	0.061998 	4484 	0.060822
34.39 	0.056641 	4502 	0.055861
34.43 	0.057502 	4539 	0.055566
34.47 	0.056838 	4592 	0.055817
34.51 	0.061007 	4606 	0.060117
34.55 	0.057075 	4643 	0.056066
34.59 	0.055829 	4675 	0.054826
34.63 	0.051380 	4710 	0.050136
34.67 	0.061801 	4741 	0.061060
34.71 	0.052665 	4766 	0.052296
34.75 	0.055324 	4808 	0.054959
34.79 	0.057007 	4824 	0.056157
34.83 	0.056767 	4862 	0.055422
34.87 	0.048480 	4868 	0.047878
34.91 	0.053871 	4882 	0.052911
34.95 	0.053988 	4890 	0.053509
34.99 	0.056974 	4897 	0.056615
35.03 	0.055837 	4943 	0.054770
35.07 	0.053644 	4940 	0.052577
35.11 	0.059834 	4947 	0.058769
35.15 	0.057930 	4937 	0.056625
35.19 	0.053420 	4942 	0.052471
35.23 	0.058038 	4945 	0.057091
35.27 	0.060631 	4948 	0.059092
35.31 	0.052301 	4933 	0.051470
35.35 	0.062930 	4942 	0.061982
35.39 	0.057230 	4945 	0.055808
35.43 	0.052504 	4933 	0.051435
35.47 	0.052119 	4931 	0.051525
35.51 	0.058059 	4926 	0.056989
35.55 	0.058443 	4945 	0.057614
35.59 	0.055005 	4945 	0.054413
35.63 	0.057455 	4943 	0.056369
35.67 	0.055848 	4942 	0.055137
35.71 	0.057322 	4937 	0.055642
35.75 	0.058812 	4931 	0.057742
35.79 	0.054947 	4932 	0.054710
35.83 	0.054994 	4946 	0.054283
35.87 	0.054641 	4923 	0.053809
35.91 	0.055815 	4927 	0.054725
35.95 	0.060199 	4917 	0.058770
35.99 	0.064183 	4939 	0.062997
36.03 	0.049363 	4943 	0.048514
36.07 	0.058919 	4939 	0.058326
36.11 	0.054981 	4929 	0.053911
36.15 	0.054060 	4939 	0.053704
36.19 	0.056478 	4940 	0.055766
36.23 	0.055927 	4935 	0.054859
36.27 	0.061929 	4925 	0.061453
36.31 	0.053774 	4928 	0.052942
36.35 	0.054372 	4929 	0.053639
36.39 	0.056899 	4921 	0.055590
36.43 	0.060065 	4928 	0.058995
36.47 	0.055511 	4936 	0.054561
36.51 	0.056355 	4933 	0.055168
36.55 	0.055815 	4927 	0.055339
36.59 	0.055477 	4939 	0.054409
36.63 	0.055770 	4931 	0.055176
36.67 	0.061258 	4930 	0.059951
36.71 	0.058525 	4921 	0.057810
36.75 	0.051578 	4944 	0.050630
36.79 	0.055477 	4921 	0.054167
36.83 	0.056155 	4915 	0.055082
36.87 	0.056837 	4944 	0.056126
36.91 	0.055454 	4941 	0.055099
36.95 	0.052504 	4933 	0.051554
36.99 	0.055117 	4935 	0.054167
37.03 	0.053209 	4924 	0.052495
37.07 	0.054914 	4935 	0.054439
37.11 	0.052077 	4935 	0.051246
37.15 	0.047056 	4909 	0.046579
37.19 	0.058477 	4925 	0.057506
37.23 	0.047377 	4918 	0.046424
37.27 	0.048427 	4894 	0.048068
37.31 	0.048835 	4935 	0.048123
37.35 	0.055488 	4938 	0.054401
37.39 	0.056784 	4931 	0.055596
37.43 	0.051095 	4932 	0.050620
37.47 	0.055184 	4929 	0.054332
37.51 	0.059396 	4933 	0.058327
37.55 	0.053550 	4930 	0.052480
37.59 	0.050051 	4915 	0.049078
37.63 	0.054686 	4919 	0.053614
37.67 	0.056077 	4904 	0.055360
37.71 	0.046054 	4929 	0.045816
37.75 	0.048583 	4940 	0.047634
37.79 	0.058621 	4930 	0.057670
37.83 	0.051220 	4920 	0.049910
37.87 	0.052035 	4939 	0.051442
37.91 	0.053347 	4930 	0.052040
37.95 	0.050193 	4921 	0.049836
37.99 	0.059446 	4912 	0.058115
38.03 	0.059483 	4909 	0.058647
38.07 	0.053575 	4909 	0.052978
38.11 	0.052077 	4935 	0.050752
38.15 	0.051037 	4918 	0.050918
38.19 	0.051927 	4930 	0.050976
38.23 	0.053665 	4938 	0.052716
38.27 	0.060041 	4930 	0.059209
38.31 	0.059671 	4927 	0.058720
38.35 	0.069805 	4928 	0.067646
38.39 	0.075372 	4909 	0.074178
38.43 	0.066111 	4916 	0.064919
38.47 	0.067047 	4907 	0.065973
38.51 	0.068735 	4932 	0.067547
38.55 	0.074149 	4936 	0.072488
38.59 	0.071080 	4924 	0.069534
38.63 	0.069659 	4924 	0.068707
38.67 	0.064209 	4937 	0.063378
38.71 	0.063160 	4924 	0.061613
38.75 	0.063325 	4927 	0.061640
38.79 	0.064856 	4934 	0.063313
38.83 	0.050010 	4919 	0.049177
38.87 	0.050906 	4911 	0.049952
38.91 	0.045686 	4903 	0.044731
38.95 	0.050224 	4918 	0.049747
38.99 	0.048613 	4937 	0.047426
39.03 	0.048845 	4934 	0.048607
39.07 	0.046304 	4924 	0.045570
39.11 	0.044818 	4931 	0.043987
39.15 	0.049644 	4915 	0.048810
39.19 	0.044539 	4917 	0.043825
39.23 	0.044873 	4925 	0.044397
39.27 	0.043992 	4910 	0.043157
39.31 	0.049140 	4884 	0.048540
39.35 	0.047011 	4935 	0.046062
39.39 	0.040373 	4929 	0.039898
39.43 	0.043787 	4933 	0.043074
39.47 	0.048345 	4923 	0.047750
39.51 	0.044273 	4924 	0.044035
39.55 	0.041065 	4919 	0.040827
39.59 	0.050489 	4912 	0.049515
39.63 	0.041650 	4922 	0.041293
39.67 	0.047425 	4913 	0.047187
39.71 	0.048212 	4895 	0.047734
39.75 	0.042411 	4928 	0.042173
39.79 	0.049736 	4926 	0.049023
39.83 	0.046210 	4934 	0.045498
39.87 	0.044264 	4925 	0.043788
39.91 	0.043275 	4922 	0.042680
39.95 	0.040692 	4915 	0.040453
39.99 	0.041363 	4932 	0.040887
40.03 	0.048093 	4928 	0.047617
40.07 	0.047938 	4923 	0.047700
40.11 	0.046786 	4916 	0.046071
40.15 	0.042540 	4913 	0.042063
40.19 	0.041591 	4929 	0.041234
40.23 	0.041160 	4932 	0.040803
40.27 	0.046790 	4937 	0.046671
40.31 	0.039482 	4939 	0.039244
40.35 	0.043708 	4919 	0.043113
40.39 	0.041168 	4931 	0.041049
40.43 	0.042259 	4922 	0.041069
40.47 	0.042904 	4918 	0.042665
40.51 	0.040634 	4922 	0.040396
40.55 	0.036267 	4908 	0.035790
40.59 	0.038687 	4937 	0.037857
40.63 	0.046653 	4930 	0.045703
40.67 	0.036294 	4932 	0.035680
40.71 	0.040754 	4932 	0.040517
40.75 	0.042588 	4931 	0.042113
40.79 	0.037368 	4924 	0.037011
40.83 	0.040990 	4928 	0.040871
40.87 	0.038961 	4928 	0.038723
40.91 	0.037579 	4923 	0.037103
40.95 	0.041319 	4913 	0.041080
40.99 	0.038790 	4924 	0.038552
41.03 	0.035882 	4905 	0.035285
41.07 	0.040974 	4930 	0.040498
41.11 	0.038298 	4935 	0.037586
41.15 	0.036632 	4941 	0.036158
41.19 	0.043002 	4930 	0.042289
41.23 	0.035230 	4939 	0.034637
41.27 	0.039140 	4931 	0.038883
41.31 	0.039327 	4933 	0.038852
41.35 	0.040097 	4938 	0.039504
41.39 	0.040949 	4933 	0.040592
41.43 	0.040373 	4929 	0.039660
41.47 	0.039383 	4926 	0.038749
41.51 	0.038866 	4940 	0.038155
41.55 	0.039108 	4935 	0.038515
41.59 	0.037908 	4933 	0.037057
41.63 	0.038882 	4938 	0.038526
41.67 	0.039069 	4940 	0.038950
41.71 	0.037495 	4934 	0.037139
41.75 	0.043417 	4929 	0.042822
41.79 	0.043487 	4944 	0.043250
41.83 	0.036932 	4928 	0.036694
41.87 	0.041743 	4935 	0.041505
41.91 	0.042342 	4936 	0.041749
41.95 	0.035287 	4931 	0.034693
41.99 	0.034659 	4905 	0.034539
42.03 	0.036850 	4939 	0.036612
42.07 	0.034029 	4937 	0.033791
42.11 	0.043276 	4945 	0.043039
42.15 	0.036655 	4938 	0.036299
42.19 	0.036471 	4908 	0.036352
42.23 	0.035977 	4892 	0.035259
42.27 	0.037751 	4874 	0.037511
42.31 	0.039547 	4855 	0.038944
42.35 	0.043406 	4838 	0.042922
42.39 	0.036428 	4804 	0.035940
42.43 	0.041110 	4792 	0.040988
42.47 	0.040923 	4765 	0.040800
42.51 	0.038372 	4743 	0.037755
42.55 	0.033772 	4708 	0.033523
42.59 	0.040178 	4729 	0.039187
42.63 	0.030155 	4709 	0.029782
42.67 	0.034586 	4684 	0.034086
42.71 	0.040532 	4663 	0.039778
42.75 	0.033788 	4617 	0.033408
42.79 	0.039066 	4582 	0.038810
42.83 	0.032628 	4536 	0.031982
42.87 	0.037119 	4499 	0.036859
42.91 	0.034111 	4456 	0.033848
42.95 	0.040761 	4416 	0.040363
42.99 	0.039453 	4385 	0.038785
43.03 	0.039926 	4333 	0.039521
43.07 	0.038408 	4296 	0.037590
43.11 	0.035723 	4255 	0.035447
43.15 	0.035663 	4206 	0.035663
43.19 	0.038865 	4194 	0.038446
43.23 	0.038517 	4154 	0.037953
43.27 	0.035810 	4105 	0.035525
43.31 	0.038245 	4079 	0.037957
43.35 	0.039187 	4032 	0.038436
43.39 	0.037731 	4002 	0.037292
43.43 	0.034091 	3960 	0.033351
43.47 	0.039786 	3921 	0.039487
43.51 	0.033531 	3877 	0.033078
43.55 	0.032051 	2964 	0.031458
43.59 	0.039519 	1746 	0.039183
43.63 	0.031968 	1001 	0.031383
43.67 	0.021912 	502 	0.021912
43.71 	0.025105 	239 	0.025105
43.75 	0.000000 	16 	0.000000