File: Example_Data/25SC_s1_0051.001.dat
#F C:\frames\spec\25SC_s1_0051.001
#C title =s:51 frm:1 25SC_s1
#C wavelength =0.15406

#S 1  fr_average C:\frames\spec\25SC_s1_0051.001 C:\win32app\speccom\mask.axs chi 0 180 0 360 0.02
#C 2 theta =0.000000 to 180 deg
#C   q   =0.000000 to 81.568 nm^-1
#C  chi  =0.000000 to 360 deg
#C collumns:
#C  1 position (2theta or chi in degrees)
#C  2 average intensity (sum of all counts in the region divided with number of pixels)
#C  3 Number of pixels in region)
#C  4 error (sum of sqrt(intensity) for all pixels divided by number)
#N 4
#L TTh  Int  N_pix  Err
32.99 	0.065574 	61 	0.065574
33.03 	0.058950 	1391 	0.057687
33.07 	0.061463 	2050 	0.059177
33.11 	0.053509 	2579 	0.052828
33.15 	0.057686 	2999 	0.057100
33.19 	0.052663 	3342 	0.051962
33.23 	0.059324 	3523 	0.057994
33.27 	0.061983 	3630 	0.061015
33.31 	0.064481 	3660 	0.063361
33.35 	0.054142 	3694 	0.053825
33.39 	0.060070 	3729 	0.059598
33.43 	0.057697 	3761 	0.057386
33.47 	0.053449 	3798 	0.052524
33.51 	0.057143 	3815 	0.056222
33.55 	0.056727 	3843 	0.055964
33.59 	0.061340 	3880 	0.060585
33.63 	0.050523 	3919 	0.049776
33.67 	0.061204 	3954 	0.059870
33.71 	0.060126 	3975 	0.059094
33.75 	0.061265 	3999 	0.060069
33.79 	0.058154 	4041 	0.057719
33.83 	0.052840 	4050 	0.051682
33.87 	0.058623 	4111 	0.057768
33.91 	0.061702 	4149 	0.060854
33.95 	0.060033 	4181 	0.059333
33.99 	0.059762 	4200 	0.058646
34.03 	0.059849 	4244 	0.059435
34.07 	0.057170 	4268 	0.056461
34.11 	0.059972 	4302 	0.059019
34.15 	0.058878 	4331 	0.058202
34.19 	0.055021 	4362 	0.054618
34.23 	0.056453 	4393 	0.055253
34.27 	0.054953 	4422 	0.053628
34.31 	0.058995 	4458 	0.057812
34.35 	0.052632 	4484 	0.051717
34.39 	0.052421 	4502 	0.051901
34.43 	0.055299 	4539 	0.054395
34.47 	0.064024 	4592 	0.063514
34.51 	0.056014 	4606 	0.054869
34.55 	0.057075 	4643 	0.056444
34.59 	0.054759 	4675 	0.053611
34.63 	0.050531 	4710 	0.050033
34.67 	0.059481 	4741 	0.058225
34.71 	0.055183 	4766 	0.053953
34.75 	0.053037 	4808 	0.052306
34.79 	0.058458 	4824 	0.057608
34.83 	0.049774 	4862 	0.049031
34.87 	0.053615 	4868 	0.053014
34.91 	0.055100 	4882 	0.053661
34.95 	0.052761 	4890 	0.051922
34.99 	0.060037 	4897 	0.059439
35.03 	0.059680 	4943 	0.058614
35.07 	0.050000 	4940 	0.049526
35.11 	0.057206 	4947 	0.056614
35.15 	0.054487 	4937 	0.053775
35.19 	0.058074 	4942 	0.057007
35.23 	0.051365 	4945 	0.050368
35.27 	0.049313 	4948 	0.048603
35.31 	0.054531 	4933 	0.054056
35.35 	0.057264 	4942 	0.055842
35.39 	0.054196 	4945 	0.052893
35.43 	0.050476 	4933 	0.049526
35.47 	0.050294 	4931 	0.049581
35.51 	0.048112 	4926 	0.047280
35.55 	0.047523 	4945 	0.046575
35.59 	0.059858 	4945 	0.058318
35.63 	0.055432 	4943 	0.054839
35.67 	0.053622 	4942 	0.053266
35.71 	0.053474 	4937 	0.052762
35.75 	0.056986 	4931 	0.055561
35.79 	0.055353 	4932 	0.054640
35.83 	0.057825 	4946 	0.056858
35.87 	0.052610 	4923 	0.051896
35.91 	0.057845 	4927 	0.056893
35.95 	0.058369 	4917 	0.056920
35.99 	0.055882 	4939 	0.055170
36.03 	0.060085 	4943 	0.058900
36.07 	0.052642 	4939 	0.051931
36.11 	0.055995 	4929 	0.055282
36.15 	0.062766 	4939 	0.061936
36.19 	0.054453 	4940 	0.054098
36.23 	0.052280 	4935 	0.051330
36.27 	0.057056 	4925 	0.056104
36.31 	0.059659 	4928 	0.057856
36.35 	0.060459 	4929 	0.059270
36.39 	0.054460 	4921 	0.053151
36.43 	0.058239 	4928 	0.057149
36.47 	0.059157 	4936 	0.058089
36.51 	0.055342 	4933 	0.054392
36.55 	0.057439 	4927 	0.056844
36.59 	0.056084 	4939 	0.055254
36.63 	0.061245 	4931 	0.060414
36.67 	0.060243 	4930 	0.059293
36.71 	0.056899 	4921 	0.056304
36.75 	0.051173 	4944 	0.050581
36.79 	0.063199 	4921 	0.061770
36.83 	0.056358 	4915 	0.055524
36.87 	0.057039 	4944 	0.056209
36.91 	0.058085 	4941 	0.057117
36.95 	0.061220 	4933 	0.060152
36.99 	0.051672 	4935 	0.051434
37.03 	0.058083 	4924 	0.057369
37.07 	0.057143 	4935 	0.056055
37.11 	0.060790 	4935 	0.059247
37.15 	0.053779 	4909 	0.053182
37.19 	0.055228 	4925 	0.054753
37.23 	0.054697 	4918 	0.053387
37.27 	0.055170 	4894 	0.054691
37.31 	0.056130 	4935 	0.055655
37.35 	0.054273 	4938 	0.053205
37.39 	0.056986 	4931 	0.055898
37.43 	0.049878 	4932 	0.049522
37.47 	0.061067 	4929 	0.060235
37.51 	0.053923 	4933 	0.053091
37.55 	0.052333 	4930 	0.051382
37.59 	0.055544 	4915 	0.054690
37.63 	0.051230 	4919 	0.050873
37.67 	0.058728 	4904 	0.057891
37.71 	0.053561 	4929 	0.052947
37.75 	0.056073 	4940 	0.055006
37.79 	0.055984 	4930 	0.055251
37.83 	0.052642 	4920 	0.052047
37.87 	0.045556 	4939 	0.045081
37.91 	0.053347 	4930 	0.052515
37.95 	0.053444 	4921 	0.052730
37.99 	0.053135 	4912 	0.052658
38.03 	0.047464 	4909 	0.046629
38.07 	0.055205 	4909 	0.054369
38.11 	0.058967 	4935 	0.058017
38.15 	0.057137 	4918 	0.056065
38.19 	0.051927 	4930 	0.051214
38.23 	0.063994 	4938 	0.063163
38.27 	0.065923 	4930 	0.064478
38.31 	0.061295 	4927 	0.060344
38.35 	0.071834 	4928 	0.070408
38.39 	0.075372 	4909 	0.073920
38.43 	0.067941 	4916 	0.066869
38.47 	0.076829 	4907 	0.075277
38.51 	0.073195 	4932 	0.071157
38.55 	0.079619 	4936 	0.077364
38.59 	0.062754 	4924 	0.061188
38.63 	0.064988 	4924 	0.063084
38.67 	0.060563 	4937 	0.059495
38.71 	0.062754 	4924 	0.061207
38.75 	0.052365 	4927 	0.051394
38.79 	0.049655 	4934 	0.049181
38.83 	0.056516 	4919 	0.056158
38.87 	0.049481 	4911 	0.049481
38.91 	0.053845 	4903 	0.053247
38.95 	0.046767 	4918 	0.046171
38.99 	0.042941 	4937 	0.042348
39.03 	0.044386 	4934 	0.043674
39.07 	0.052600 	4924 	0.051390
39.11 	0.045427 	4931 	0.045051
39.15 	0.048016 	4915 	0.046944
39.19 	0.047793 	4917 	0.046821
39.23 	0.047716 	4925 	0.046645
39.27 	0.043992 	4910 	0.043395
39.31 	0.045045 	4884 	0.044805
39.35 	0.043161 	4935 	0.042449
39.39 	0.045445 	4929 	0.044732
39.43 	0.044800 	4933 	0.044444
39.47 	0.043266 	4923 	0.042909
39.51 	0.042242 	4924 	0.042004
39.55 	0.047977 	4919 	0.047263
39.59 	0.042142 	4912 	0.041168
39.63 	0.043681 	4922 	0.042353
39.67 	0.043151 	4913 	0.043032
39.71 	0.042901 	4895 	0.042542
39.75 	0.042208 	4928 	0.041851
39.79 	0.039992 	4926 	0.039516
39.83 	0.045602 	4934 	0.045008
39.87 	0.044061 	4925 	0.043942
39.91 	0.041853 	4922 	0.041496
39.95 	0.043540 	4915 	0.043063
39.99 	0.042985 	4932 	0.042628
40.03 	0.035714 	4928 	0.035477
40.07 	0.042657 	4923 	0.042300
40.11 	0.045972 	4916 	0.045019
40.15 	0.041726 	4913 	0.041488
40.19 	0.044228 	4929 	0.043990
40.23 	0.036496 	4932 	0.035902
40.27 	0.039700 	4937 	0.039107
40.31 	0.045556 	4939 	0.044488
40.35 	0.041269 	4919 	0.041149
40.39 	0.038532 	4931 	0.037581
40.43 	0.045104 	4922 	0.044985
40.47 	0.043107 	4918 	0.042750
40.51 	0.045916 	4922 	0.045440
40.55 	0.040139 	4908 	0.039542
40.59 	0.042131 	4937 	0.041419
40.63 	0.039554 	4930 	0.038841
40.67 	0.038321 	4932 	0.037846
40.71 	0.039943 	4932 	0.039824
40.75 	0.039546 	4931 	0.038952
40.79 	0.041836 	4924 	0.041479
40.83 	0.042411 	4928 	0.042054
40.87 	0.042411 	4928 	0.041579
40.91 	0.047329 	4923 	0.046496
40.95 	0.038673 	4913 	0.038077
40.99 	0.043054 	4924 	0.042698
41.03 	0.037309 	4905 	0.036812
41.07 	0.041582 	4930 	0.041345
41.11 	0.039108 	4935 	0.038515
41.15 	0.041490 	4941 	0.040778
41.19 	0.041988 	4930 	0.041275
41.23 	0.038874 	4939 	0.038518
41.27 	0.044818 	4931 	0.044818
41.31 	0.039530 	4933 	0.038936
41.35 	0.040907 	4938 	0.040077
41.39 	0.042165 	4933 	0.041928
41.43 	0.036519 	4929 	0.036162
41.47 	0.041007 	4926 	0.040769
41.51 	0.038866 	4940 	0.038392
41.55 	0.039514 	4935 	0.039276
41.59 	0.042976 	4933 	0.042738
41.63 	0.041920 	4938 	0.041327
41.67 	0.038664 	4940 	0.038071
41.71 	0.037495 	4934 	0.037139
41.75 	0.040982 	4929 	0.040625
41.79 	0.037419 	4944 	0.036471
41.83 	0.036323 	4928 	0.035610
41.87 	0.043364 	4935 	0.042652
41.91 	0.044976 	4936 	0.044264
41.95 	0.040965 	4931 	0.040609
41.99 	0.039144 	4905 	0.038785
42.03 	0.037052 	4939 	0.036340
42.07 	0.038687 	4937 	0.038450
42.11 	0.036805 	4945 	0.036213
42.15 	0.036655 	4938 	0.036536
42.19 	0.037286 	4908 	0.036570
42.23 	0.035364 	4892 	0.035124
42.27 	0.041034 	4874 	0.040674
42.31 	0.036869 	4855 	0.036507
42.35 	0.039479 	4838 	0.039237
42.39 	0.039759 	4804 	0.039515
42.43 	0.035267 	4792 	0.034656
42.47 	0.037356 	4765 	0.037233
42.51 	0.040059 	4743 	0.039565
42.55 	0.038445 	4708 	0.038072
42.59 	0.036371 	4729 	0.036000
42.63 	0.035252 	4709 	0.035003
42.67 	0.034159 	4684 	0.033909
42.71 	0.034956 	4663 	0.034705
42.75 	0.036820 	4617 	0.036440
42.79 	0.036229 	4582 	0.036101
42.83 	0.035494 	4536 	0.035494
42.87 	0.044232 	4499 	0.043711
42.91 	0.040171 	4456 	0.040039
42.95 	0.033741 	4416 	0.033210
42.99 	0.038769 	4385 	0.038368
43.03 	0.037618 	4333 	0.037348
43.07 	0.039339 	4296 	0.039203
43.11 	0.037838 	4255 	0.037562
43.15 	0.036139 	4206 	0.036000
43.19 	0.037434 	4194 	0.036596
43.23 	0.033221 	4154 	0.032939
43.27 	0.040682 	4105 	0.040397
43.31 	0.035303 	4079 	0.034728
43.35 	0.039931 	4032 	0.039204
43.39 	0.035732 	4002 	0.035147
43.43 	0.032828 	3960 	0.032237
43.47 	0.037235 	3921 	0.037235
43.51 	0.036626 	3877 	0.036626
43.55 	0.039474 	2964 	0.039078
43.59 	0.034937 	1746 	0.033930
43.63 	0.035964 	1001 	0.035964
43.67 	0.025896 	502 	0.025896
43.71 	0.050209 	239 	0.050209
43.75 	0.062500 	16 	0.062500