File: Example_Data/25SC_s1_0043.001.dat
#F C:\frames\spec\25SC_s1_0043.001
#C title =s:43 frm:1 25SC_s1
#C wavelength =0.15406

#S 1  fr_average C:\frames\spec\25SC_s1_0043.001 C:\win32app\speccom\mask.axs chi 0 180 0 360 0.02
#C 2 theta =0.000000 to 180 deg
#C   q   =0.000000 to 81.568 nm^-1
#C  chi  =0.000000 to 360 deg
#C collumns:
#C  1 position (2theta or chi in degrees)
#C  2 average intensity (sum of all counts in the region divided with number of pixels)
#C  3 Number of pixels in region)
#C  4 error (sum of sqrt(intensity) for all pixels divided by number)
#N 4
#L TTh  Int  N_pix  Err
32.99 	0.065574 	61 	0.065574
33.03 	0.071891 	1391 	0.071048
33.07 	0.076098 	2050 	0.073526
33.11 	0.055836 	2579 	0.054927
33.15 	0.059020 	2999 	0.058434
33.19 	0.064034 	3342 	0.062807
33.23 	0.058757 	3523 	0.057593
33.27 	0.058402 	3630 	0.057111
33.31 	0.051639 	3660 	0.050999
33.35 	0.051705 	3694 	0.050595
33.39 	0.057120 	3729 	0.056177
33.43 	0.053177 	3761 	0.053022
33.47 	0.061611 	3798 	0.060686
33.51 	0.062910 	3815 	0.061681
33.55 	0.061671 	3843 	0.060604
33.59 	0.060567 	3880 	0.059812
33.63 	0.058688 	3919 	0.057618
33.67 	0.057916 	3954 	0.056731
33.71 	0.056855 	3975 	0.055234
33.75 	0.060265 	3999 	0.058800
33.79 	0.054442 	4041 	0.053427
33.83 	0.060247 	4050 	0.059379
33.87 	0.055704 	4111 	0.054849
33.91 	0.058568 	4149 	0.058145
33.95 	0.060751 	4181 	0.059770
33.99 	0.053571 	4200 	0.052177
34.03 	0.061499 	4244 	0.060946
34.07 	0.060450 	4268 	0.059489
34.11 	0.052766 	4302 	0.051518
34.15 	0.057954 	4331 	0.057143
34.19 	0.057542 	4362 	0.057005
34.23 	0.059868 	4393 	0.058913
34.27 	0.061284 	4422 	0.060225
34.31 	0.057649 	4458 	0.055657
34.35 	0.058430 	4484 	0.057385
34.39 	0.055309 	4502 	0.054398
34.43 	0.058163 	4539 	0.057388
34.47 	0.053354 	4592 	0.052971
34.51 	0.058402 	4606 	0.057385
34.55 	0.055783 	4643 	0.055026
34.59 	0.052406 	4675 	0.051634
34.63 	0.056263 	4710 	0.054895
34.67 	0.051888 	4741 	0.050652
34.71 	0.054763 	4766 	0.054394
34.75 	0.059068 	4808 	0.058094
34.79 	0.058043 	4824 	0.057436
34.83 	0.058824 	4862 	0.057980
34.87 	0.050534 	4868 	0.049451
34.91 	0.056329 	4882 	0.055729
34.95 	0.046626 	4890 	0.045787
34.99 	0.062487 	4897 	0.060554
35.03 	0.060692 	4943 	0.060218
35.07 	0.054656 	4940 	0.054419
35.11 	0.053972 	4947 	0.052887
35.15 	0.050841 	4937 	0.050366
35.19 	0.058681 	4942 	0.058207
35.23 	0.054196 	4945 	0.053012
35.27 	0.063056 	4948 	0.061635
35.31 	0.055139 	4933 	0.054545
35.35 	0.053217 	4942 	0.052625
35.39 	0.059050 	4945 	0.058102
35.43 	0.056963 	4933 	0.056013
35.47 	0.056784 	4931 	0.055714
35.51 	0.057044 	4926 	0.056212
35.55 	0.053994 	4945 	0.053283
35.59 	0.056421 	4945 	0.055710
35.63 	0.056848 	4943 	0.056256
35.67 	0.048563 	4942 	0.047951
35.71 	0.054689 	4937 	0.053977
35.75 	0.059217 	4931 	0.058386
35.79 	0.055150 	4932 	0.054200
35.83 	0.050748 	4946 	0.050156
35.87 	0.054438 	4923 	0.053129
35.91 	0.060889 	4927 	0.059700
35.95 	0.055928 	4917 	0.055094
35.99 	0.061956 	4939 	0.060888
36.03 	0.055837 	4943 	0.055125
36.07 	0.052642 	4939 	0.052049
36.11 	0.051126 	4929 	0.050413
36.15 	0.052440 	4939 	0.051965
36.19 	0.060324 	4940 	0.059375
36.23 	0.053090 	4935 	0.052497
36.27 	0.061726 	4925 	0.060536
36.31 	0.062094 	4928 	0.061143
36.35 	0.056198 	4929 	0.055604
36.39 	0.054664 	4921 	0.053216
36.43 	0.059862 	4928 	0.059030
36.47 	0.057942 	4936 	0.057467
36.51 	0.056963 	4933 	0.056013
36.55 	0.056627 	4927 	0.055557
36.59 	0.057097 	4939 	0.056217
36.63 	0.059217 	4931 	0.058504
36.67 	0.058621 	4930 	0.057175
36.71 	0.054664 	4921 	0.053592
36.75 	0.053803 	4944 	0.052855
36.79 	0.065840 	4921 	0.064531
36.83 	0.062665 	4915 	0.061593
36.87 	0.056028 	4944 	0.055198
36.91 	0.057073 	4941 	0.055414
36.95 	0.057774 	4933 	0.055874
36.99 	0.055927 	4935 	0.054977
37.03 	0.052600 	4924 	0.052243
37.07 	0.054914 	4935 	0.054439
37.11 	0.059574 	4935 	0.058862
37.15 	0.055408 	4909 	0.054334
37.19 	0.060914 	4925 	0.059843
37.23 	0.057747 	4918 	0.056417
37.27 	0.054557 	4894 	0.054198
37.31 	0.053293 	4935 	0.052937
37.35 	0.054678 	4938 	0.054441
37.39 	0.056581 	4931 	0.055630
37.43 	0.058800 	4932 	0.057612
37.47 	0.049706 	4929 	0.049211
37.51 	0.053923 	4933 	0.052616
37.55 	0.056187 	4930 	0.055593
37.59 	0.051882 	4915 	0.050929
37.63 	0.055092 	4919 	0.054497
37.67 	0.050163 	4904 	0.049924
37.71 	0.049909 	4929 	0.049552
37.75 	0.057895 	4940 	0.056709
37.79 	0.058621 	4930 	0.057195
37.83 	0.057114 	4920 	0.056638
37.87 	0.051225 	4939 	0.050513
37.91 	0.060243 	4930 	0.059036
37.95 	0.051006 	4921 	0.050292
37.99 	0.050285 	4912 	0.049450
38.03 	0.056223 	4909 	0.055130
38.07 	0.054186 	4909 	0.053112
38.11 	0.054306 	4935 	0.053950
38.15 	0.053680 	4918 	0.052946
38.19 	0.062069 	4930 	0.060881
38.23 	0.059538 	4938 	0.058827
38.27 	0.060041 	4930 	0.059070
38.31 	0.069008 	4927 	0.068413
38.35 	0.069399 	4928 	0.067497
38.39 	0.074150 	4909 	0.072718
38.43 	0.077095 	4916 	0.075169
38.47 	0.080905 	4907 	0.078856
38.51 	0.078062 	4932 	0.076161
38.55 	0.069489 	4936 	0.068065
38.59 	0.073111 	4924 	0.071446
38.63 	0.071690 	4924 	0.070738
38.67 	0.061576 	4937 	0.060232
38.71 	0.064988 	4924 	0.064036
38.75 	0.057642 	4927 	0.056790
38.79 	0.053912 	4934 	0.052606
38.83 	0.048587 	4919 	0.047634
38.87 	0.049074 	4911 	0.048358
38.91 	0.050377 	4903 	0.049302
38.95 	0.043717 	4918 	0.042506
38.99 	0.053271 	4937 	0.052441
39.03 	0.046413 	4934 	0.045819
39.07 	0.048741 	4924 	0.047908
39.11 	0.045832 	4931 	0.045595
39.15 	0.049440 	4915 	0.048725
39.19 	0.045149 	4917 	0.044435
39.23 	0.046904 	4925 	0.046051
39.27 	0.047047 	4910 	0.046331
39.31 	0.048321 	4884 	0.047242
39.35 	0.046403 	4935 	0.045810
39.39 	0.047677 	4929 	0.046845
39.43 	0.047638 	4933 	0.047520
39.47 	0.045094 	4923 	0.044856
39.51 	0.047929 	4924 	0.047096
39.55 	0.044318 	4919 	0.043842
39.59 	0.045195 	4912 	0.044361
39.63 	0.044697 	4922 	0.044340
39.67 	0.041930 	4913 	0.041214
39.71 	0.049642 	4895 	0.049283
39.75 	0.049919 	4928 	0.048968
39.79 	0.044255 	4926 	0.043660
39.83 	0.042156 	4934 	0.041306
39.87 	0.045482 	4925 	0.045006
39.91 	0.049167 	4922 	0.048096
39.95 	0.043133 	4915 	0.042518
39.99 	0.048054 	4932 	0.047460
40.03 	0.048701 	4928 	0.047631
40.07 	0.043673 	4923 	0.043197
40.11 	0.042311 	4916 	0.041238
40.15 	0.041115 	4913 	0.040400
40.19 	0.044431 	4929 	0.044312
40.23 	0.042782 	4932 	0.042069
40.27 	0.041118 	4937 	0.040881
40.31 	0.043329 	4939 	0.042973
40.35 	0.044521 	4919 	0.043569
40.39 	0.041168 	4931 	0.040574
40.43 	0.039009 	4922 	0.038651
40.47 	0.038227 	4918 	0.037870
40.51 	0.043072 	4922 	0.042477
40.55 	0.040342 	4908 	0.039865
40.59 	0.036054 	4937 	0.035580
40.63 	0.046450 	4930 	0.045737
40.67 	0.042174 	4932 	0.041580
40.71 	0.043593 	4932 	0.043118
40.75 	0.040763 	4931 	0.040406
40.79 	0.041430 	4924 	0.041430
40.83 	0.042817 	4928 	0.042103
40.87 	0.039367 	4928 	0.038891
40.91 	0.042251 	4923 	0.041775
40.95 	0.039080 	4913 	0.038603
40.99 	0.046710 	4924 	0.045996
41.03 	0.039348 	4905 	0.038750
41.07 	0.041988 	4930 	0.041631
41.11 	0.039514 	4935 	0.039158
41.15 	0.047561 	4941 	0.046968
41.19 	0.040162 	4930 	0.040043
41.23 	0.044746 	4939 	0.044034
41.27 	0.041979 	4931 	0.041742
41.31 	0.041354 	4933 	0.040879
41.35 	0.043945 	4938 	0.043115
41.39 	0.036489 	4933 	0.036133
41.43 	0.041793 	4929 	0.041080
41.47 	0.037353 	4926 	0.036877
41.51 	0.041498 	4940 	0.041024
41.55 	0.043364 	4935 	0.042652
41.59 	0.043787 	4933 	0.042837
41.63 	0.039085 	4938 	0.038847
41.67 	0.039474 	4940 	0.039237
41.71 	0.040332 	4934 	0.039976
41.75 	0.040373 	4929 	0.039898
41.79 	0.034385 	4944 	0.034030
41.83 	0.038352 	4928 	0.037758
41.87 	0.043364 	4935 	0.042770
41.91 	0.037075 	4936 	0.036481
41.95 	0.036909 	4931 	0.036672
41.99 	0.036901 	4905 	0.036662
42.03 	0.037659 	4939 	0.037422
42.07 	0.034636 	4937 	0.034399
42.11 	0.041254 	4945 	0.040898
42.15 	0.041515 	4938 	0.040803
42.19 	0.037082 	4908 	0.036605
42.23 	0.040065 	4892 	0.039826
42.27 	0.042060 	4874 	0.041339
42.31 	0.036251 	4855 	0.035889
42.35 	0.034932 	4838 	0.034690
42.39 	0.038301 	4804 	0.037814
42.43 	0.041736 	4792 	0.041492
42.47 	0.040923 	4765 	0.040678
42.51 	0.033101 	4743 	0.032484
42.55 	0.036958 	4708 	0.036316
42.59 	0.043138 	4729 	0.042519
42.63 	0.039286 	4709 	0.038768
42.67 	0.039283 	4684 	0.038782
42.71 	0.038387 	4663 	0.038010
42.75 	0.034221 	4617 	0.033333
42.79 	0.035792 	4582 	0.035025
42.83 	0.041446 	4536 	0.040930
42.87 	0.035563 	4499 	0.035173
42.91 	0.033887 	4456 	0.033624
42.95 	0.039855 	4416 	0.039037
42.99 	0.034208 	4385 	0.033673
43.03 	0.037387 	4333 	0.036712
43.07 	0.043762 	4296 	0.043057
43.11 	0.039013 	4255 	0.038600
43.15 	0.039943 	4206 	0.039386
43.19 	0.040773 	4194 	0.040354
43.23 	0.037073 	4154 	0.036227
43.27 	0.038490 	4105 	0.038204
43.31 	0.041432 	4079 	0.041001
43.35 	0.040179 	4032 	0.040033
43.39 	0.034233 	4002 	0.033794
43.43 	0.036364 	3960 	0.036068
43.47 	0.035960 	3921 	0.035064
43.51 	0.033531 	3877 	0.032600
43.55 	0.033063 	2964 	0.032471
43.59 	0.029782 	1746 	0.029447
43.63 	0.029970 	1001 	0.029385
43.67 	0.051793 	502 	0.050626
43.71 	0.025105 	239 	0.025105
43.75 	0.000000 	16 	0.000000