File: Example_Data/25SC_s1_0041.004.dat
#F C:\frames\spec\25SC_s1_0041.004
#C title =s:41 frm:4 25SC_s1
#C wavelength =0.15406

#S 1  fr_average C:\frames\spec\25SC_s1_0041.004 C:\win32app\speccom\mask.axs chi 0 180 0 360 0.02
#C 2 theta =0.000000 to 180 deg
#C   q   =0.000000 to 81.568 nm^-1
#C  chi  =0.000000 to 360 deg
#C collumns:
#C  1 position (2theta or chi in degrees)
#C  2 average intensity (sum of all counts in the region divided with number of pixels)
#C  3 Number of pixels in region)
#C  4 error (sum of sqrt(intensity) for all pixels divided by number)
#N 4
#L TTh  Int  N_pix  Err
32.99 	0.065574 	61 	0.065574
33.03 	0.048886 	1391 	0.048043
33.07 	0.054146 	2050 	0.052718
33.11 	0.048468 	2579 	0.047787
33.15 	0.056019 	2999 	0.055628
33.19 	0.053860 	3342 	0.052107
33.23 	0.055634 	3523 	0.054803
33.27 	0.058402 	3630 	0.057111
33.31 	0.057104 	3660 	0.056624
33.35 	0.054954 	3694 	0.054003
33.39 	0.060338 	3729 	0.059081
33.43 	0.052646 	3761 	0.052178
33.47 	0.055292 	3798 	0.054213
33.51 	0.066841 	3815 	0.065767
33.55 	0.062191 	3843 	0.060819
33.59 	0.057216 	3880 	0.056311
33.63 	0.058688 	3919 	0.057792
33.67 	0.064492 	3954 	0.063455
33.71 	0.061384 	3975 	0.061089
33.75 	0.058765 	3999 	0.058008
33.79 	0.053205 	4041 	0.052770
33.83 	0.057531 	4050 	0.056374
33.87 	0.062758 	4111 	0.061476
33.91 	0.062666 	4149 	0.061231
33.95 	0.054772 	4181 	0.053511
33.99 	0.063095 	4200 	0.060585
34.03 	0.059849 	4244 	0.058883
34.07 	0.057638 	4268 	0.056540
34.11 	0.065783 	4302 	0.064558
34.15 	0.057954 	4331 	0.056737
34.19 	0.057084 	4362 	0.056010
34.23 	0.054177 	4393 	0.053244
34.27 	0.055857 	4422 	0.055040
34.31 	0.064154 	4458 	0.062840
34.35 	0.066682 	4484 	0.065375
34.39 	0.056419 	4502 	0.055899
34.43 	0.056400 	4539 	0.055626
34.47 	0.058145 	4592 	0.056741
34.51 	0.059705 	4606 	0.058306
34.55 	0.060521 	4643 	0.059638
34.59 	0.065241 	4675 	0.063215
34.63 	0.055414 	4710 	0.054419
34.67 	0.053997 	4741 	0.053256
34.71 	0.057910 	4766 	0.057173
34.75 	0.055116 	4808 	0.054142
34.79 	0.061360 	4824 	0.060388
34.83 	0.060058 	4862 	0.059214
34.87 	0.053821 	4868 	0.053099
34.91 	0.056534 	4882 	0.055334
34.95 	0.058691 	4890 	0.058073
34.99 	0.061058 	4897 	0.060101
35.03 	0.063322 	4943 	0.062137
35.07 	0.053036 	4940 	0.052088
35.11 	0.053366 	4947 	0.052892
35.15 	0.058132 	4937 	0.057421
35.19 	0.061716 	4942 	0.060649
35.23 	0.066734 	4945 	0.064345
35.27 	0.061439 	4948 	0.060255
35.31 	0.062842 	4933 	0.062011
35.35 	0.062930 	4942 	0.061745
35.39 	0.058645 	4945 	0.057342
35.43 	0.058180 	4933 	0.056636
35.47 	0.059623 	4931 	0.058534
35.51 	0.059277 	4926 	0.058564
35.55 	0.055207 	4945 	0.054970
35.59 	0.059858 	4945 	0.058911
35.63 	0.061906 	4943 	0.061076
35.67 	0.055848 	4942 	0.054406
35.71 	0.057120 	4937 	0.055933
35.75 	0.054553 	4931 	0.053553
35.79 	0.052514 	4932 	0.051564
35.83 	0.058431 	4946 	0.057128
35.87 	0.054641 	4923 	0.053551
35.91 	0.063933 	4927 	0.062269
35.95 	0.053691 	4917 	0.052976
35.99 	0.057097 	4939 	0.056010
36.03 	0.060085 	4943 	0.059018
36.07 	0.058109 	4939 	0.057041
36.11 	0.055386 	4929 	0.054535
36.15 	0.059324 	4939 	0.057644
36.19 	0.054251 	4940 	0.052947
36.23 	0.051266 	4935 	0.050910
36.27 	0.051371 	4925 	0.050776
36.31 	0.054180 	4928 	0.053229
36.35 	0.049503 	4929 	0.048790
36.39 	0.059744 	4921 	0.058504
36.43 	0.063312 	4928 	0.062123
36.47 	0.053890 	4936 	0.052703
36.51 	0.050679 	4933 	0.049848
36.55 	0.058250 	4927 	0.057656
36.59 	0.056084 	4939 	0.054661
36.63 	0.059420 	4931 	0.057856
36.67 	0.054158 	4930 	0.053326
36.71 	0.054664 	4921 	0.053949
36.75 	0.057241 	4944 	0.056412
36.79 	0.054054 	4921 	0.052626
36.83 	0.057375 	4915 	0.056064
36.87 	0.052589 	4944 	0.051641
36.91 	0.055050 	4941 	0.053726
36.95 	0.055544 	4933 	0.054476
36.99 	0.055724 	4935 	0.054537
37.03 	0.050975 	4924 	0.050023
37.07 	0.059169 	4935 	0.057745
37.11 	0.058764 	4935 	0.057696
37.15 	0.053779 	4909 	0.053540
37.19 	0.057665 	4925 	0.056575
37.23 	0.054900 	4918 	0.054424
37.27 	0.060074 	4894 	0.059236
37.31 	0.053090 	4935 	0.052022
37.35 	0.047185 	4938 	0.046236
37.39 	0.053742 	4931 	0.053029
37.43 	0.056569 	4932 	0.055738
37.47 	0.055995 	4929 	0.055044
37.51 	0.054936 	4933 	0.053986
37.55 	0.053955 	4930 	0.052886
37.59 	0.045168 	4915 	0.044691
37.63 	0.053263 	4919 	0.052310
37.67 	0.062194 	4904 	0.060741
37.71 	0.055995 	4929 	0.055044
37.75 	0.055870 	4940 	0.055159
37.79 	0.061258 	4930 	0.060287
37.83 	0.058943 	4920 	0.058090
37.87 	0.051630 	4939 	0.050306
37.91 	0.052130 	4930 	0.051179
37.95 	0.050193 	4921 	0.049479
37.99 	0.052728 	4912 	0.052251
38.03 	0.053779 	4909 	0.053540
38.07 	0.055816 	4909 	0.055219
38.11 	0.050253 	4935 	0.049422
38.15 	0.049207 	4918 	0.048850
38.19 	0.052333 	4930 	0.051263
38.23 	0.056501 	4938 	0.055670
38.27 	0.054767 	4930 	0.053579
38.31 	0.069008 	4927 	0.067937
38.35 	0.065341 	4928 	0.064133
38.39 	0.058668 	4909 	0.057594
38.43 	0.069365 	4916 	0.067459
38.47 	0.069696 	4907 	0.069099
38.51 	0.068329 	4932 	0.067379
38.55 	0.067666 	4936 	0.066361
38.59 	0.063160 	4924 	0.062565
38.63 	0.061332 	4924 	0.060143
38.67 	0.061576 	4937 	0.060271
38.71 	0.055037 	4924 	0.054085
38.75 	0.056018 	4927 	0.055661
38.79 	0.058776 	4934 	0.057351
38.83 	0.056719 	4919 	0.055508
38.87 	0.059051 	4911 	0.058335
38.91 	0.053233 	4903 	0.051660
38.95 	0.053477 	4918 	0.052762
38.99 	0.051246 	4937 	0.050059
39.03 	0.049047 	4934 	0.048434
39.07 	0.054021 	4924 	0.053545
39.11 	0.048469 	4931 	0.047400
39.15 	0.053917 	4915 	0.053201
39.19 	0.053285 	4917 	0.052927
39.23 	0.050152 	4925 	0.049439
39.27 	0.057026 	4910 	0.055833
39.31 	0.050369 	4884 	0.049409
39.35 	0.057548 	4935 	0.056361
39.39 	0.049300 	4929 	0.048944
39.43 	0.052706 	4933 	0.051875
39.47 	0.054641 	4923 	0.053809
39.51 	0.056661 	4924 	0.055710
39.55 	0.055092 	4919 	0.053902
39.59 	0.049878 	4912 	0.049381
39.63 	0.055465 	4922 	0.054989
39.67 	0.055567 	4913 	0.054613
39.71 	0.050460 	4895 	0.050101
39.75 	0.054383 	4928 	0.052838
39.79 	0.054202 	4926 	0.053350
39.83 	0.052898 	4934 	0.051592
39.87 	0.056447 	4925 	0.055733
39.91 	0.059325 	4922 	0.058611
39.95 	0.056358 	4915 	0.055405
39.99 	0.055758 	4932 	0.054808
40.03 	0.053369 	4928 	0.052279
40.07 	0.055657 	4923 	0.054943
40.11 	0.054923 	4916 	0.053969
40.15 	0.050275 	4913 	0.049917
40.19 	0.051126 	4929 	0.050532
40.23 	0.048054 	4932 	0.047103
40.27 	0.054892 	4937 	0.053824
40.31 	0.053452 	4939 	0.053096
40.35 	0.046554 	4919 	0.046316
40.39 	0.053944 	4931 	0.053113
40.43 	0.053230 	4922 	0.051882
40.47 	0.050630 	4918 	0.050035
40.51 	0.056887 	4922 	0.055459
40.55 	0.056235 	4908 	0.055280
40.59 	0.047600 	4937 	0.046512
40.63 	0.054564 	4930 	0.053495
40.67 	0.054947 	4932 	0.054591
40.71 	0.049270 	4932 	0.048557
40.75 	0.049888 	4931 	0.049176
40.79 	0.045898 	4924 	0.045184
40.83 	0.051948 	4928 	0.051591
40.87 	0.050933 	4928 	0.049982
40.91 	0.050985 	4923 	0.050271
40.95 	0.049054 	4913 	0.048338
40.99 	0.055646 	4924 	0.054575
41.03 	0.047299 	4905 	0.046940
41.07 	0.049290 	4930 	0.048696
41.11 	0.049848 	4935 	0.049255
41.15 	0.049990 	4941 	0.049279
41.19 	0.055781 	4930 	0.054949
41.23 	0.052035 	4939 	0.051442
41.27 	0.051714 	4931 	0.050763
41.31 	0.047436 	4933 	0.046704
41.35 	0.049615 	4938 	0.048903
41.39 	0.048044 	4933 	0.047450
41.43 	0.054778 	4929 	0.053094
41.47 	0.053593 	4926 	0.052761
41.51 	0.054049 	4940 	0.053100
41.55 	0.052280 	4935 	0.051686
41.59 	0.049463 	4933 	0.049107
41.63 	0.048400 	4938 	0.047451
41.67 	0.047166 	4940 	0.046316
41.71 	0.049453 	4934 	0.049215
41.75 	0.045648 	4929 	0.045054
41.79 	0.051780 	4944 	0.050102
41.83 	0.048701 	4928 	0.047869
41.87 	0.054306 	4935 	0.053594
41.91 	0.047204 	4936 	0.046730
41.95 	0.048063 	4931 	0.047350
41.99 	0.048318 	4905 	0.047721
42.03 	0.048795 	4939 	0.048084
42.07 	0.048815 	4937 	0.048578
42.11 	0.048938 	4945 	0.047754
42.15 	0.047793 	4938 	0.047555
42.19 	0.042787 	4908 	0.041832
42.23 	0.048038 	4892 	0.047439
42.27 	0.044112 	4874 	0.043390
42.31 	0.044696 	4855 	0.044093
42.35 	0.050021 	4838 	0.049536
42.39 	0.047044 	4804 	0.046191
42.43 	0.042362 	4792 	0.041751
42.47 	0.047639 	4765 	0.046901
42.51 	0.044697 	4743 	0.044327
42.55 	0.050765 	4708 	0.050018
42.59 	0.047790 	4729 	0.047295
42.63 	0.046507 	4709 	0.046133
42.67 	0.044620 	4684 	0.043745
42.71 	0.048252 	4663 	0.047498
42.75 	0.049383 	4617 	0.048368
42.79 	0.048450 	4582 	0.048195
42.83 	0.043871 	4536 	0.043096
42.87 	0.049122 	4499 	0.048601
42.91 	0.044659 	4456 	0.044002
42.95 	0.048687 	4416 	0.048554
42.99 	0.052908 	4385 	0.051951
43.03 	0.049619 	4333 	0.048808
43.07 	0.046322 	4296 	0.045777
43.11 	0.044888 	4255 	0.044338
43.15 	0.043509 	4206 	0.042952
43.19 	0.051264 	4194 	0.050263
43.23 	0.047183 	4154 	0.046478
43.27 	0.048965 	4105 	0.048108
43.31 	0.048786 	4079 	0.048212
43.35 	0.049851 	4032 	0.048979
43.39 	0.051474 	4002 	0.050889
43.43 	0.041414 	3960 	0.041118
43.47 	0.049477 	3921 	0.048581
43.51 	0.046170 	3877 	0.045716
43.55 	0.043522 	2964 	0.043325
43.59 	0.039519 	1746 	0.039183
43.63 	0.046953 	1001 	0.045783
43.67 	0.049801 	502 	0.049801
43.71 	0.041841 	239 	0.041841
43.75 	0.000000 	16 	0.000000