File: Example_Data/25SC_s1_0040.002.dat
#F C:\frames\spec\25SC_s1_0040.002
#C title =s:40 frm:2 25SC_s1
#C wavelength =0.15406

#S 1  fr_average C:\frames\spec\25SC_s1_0040.002 C:\win32app\speccom\mask.axs chi 0 180 0 360 0.02
#C 2 theta =0.000000 to 180 deg
#C   q   =0.000000 to 81.568 nm^-1
#C  chi  =0.000000 to 360 deg
#C collumns:
#C  1 position (2theta or chi in degrees)
#C  2 average intensity (sum of all counts in the region divided with number of pixels)
#C  3 Number of pixels in region)
#C  4 error (sum of sqrt(intensity) for all pixels divided by number)
#N 4
#L TTh  Int  N_pix  Err
32.99 	0.081967 	61 	0.081967
33.03 	0.047448 	1391 	0.047027
33.07 	0.060000 	2050 	0.059429
33.11 	0.055448 	2579 	0.055448
33.15 	0.062688 	2999 	0.062102
33.19 	0.065530 	3342 	0.063952
33.23 	0.053080 	3523 	0.051916
33.27 	0.060331 	3630 	0.059362
33.31 	0.049180 	3660 	0.049020
33.35 	0.061180 	3694 	0.060387
33.39 	0.061142 	3729 	0.059729
33.43 	0.060090 	3761 	0.059000
33.47 	0.054239 	3798 	0.053931
33.51 	0.059502 	3815 	0.058248
33.55 	0.053864 	3843 	0.052772
33.59 	0.054381 	3880 	0.053325
33.63 	0.052054 	3919 	0.050709
33.67 	0.062721 	3954 	0.061512
33.71 	0.052579 	3975 	0.051842
33.75 	0.054264 	3999 	0.052652
33.79 	0.058401 	4041 	0.057363
33.83 	0.056543 	4050 	0.055675
33.87 	0.061542 	4111 	0.060117
33.91 	0.054471 	4149 	0.053483
33.95 	0.061229 	4181 	0.058988
33.99 	0.057619 	4200 	0.056503
34.03 	0.051367 	4244 	0.050677
34.07 	0.055295 	4268 	0.054197
34.11 	0.057880 	4302 	0.057199
34.15 	0.055645 	4331 	0.054563
34.19 	0.057313 	4362 	0.056910
34.23 	0.061689 	4393 	0.061022
34.27 	0.060606 	4422 	0.059679
34.31 	0.056079 	4458 	0.055028
34.35 	0.058876 	4484 	0.057700
34.39 	0.056641 	4502 	0.055709
34.43 	0.055078 	4539 	0.053766
34.47 	0.053136 	4592 	0.052370
34.51 	0.061007 	4606 	0.060244
34.55 	0.055352 	4643 	0.054217
34.59 	0.057112 	4675 	0.055985
34.63 	0.052229 	4710 	0.050468
34.67 	0.046404 	4741 	0.045518
34.71 	0.053504 	4766 	0.053012
34.75 	0.055740 	4808 	0.055009
34.79 	0.057007 	4824 	0.056035
34.83 	0.059235 	4862 	0.058151
34.87 	0.058546 	4868 	0.057342
34.91 	0.054486 	4882 	0.053646
34.95 	0.058691 	4890 	0.057373
34.99 	0.051664 	4897 	0.050707
35.03 	0.060894 	4943 	0.060065
35.07 	0.057490 	4940 	0.055948
35.11 	0.055185 	4947 	0.054474
35.15 	0.054689 	4937 	0.053621
35.19 	0.051194 	4942 	0.050127
35.23 	0.057027 	4945 	0.056435
35.27 	0.063864 	4948 	0.062325
35.31 	0.056558 	4933 	0.055608
35.35 	0.050384 	4942 	0.048962
35.39 	0.056218 	4945 	0.055251
35.43 	0.053517 	4933 	0.052805
35.47 	0.056378 	4931 	0.055071
35.51 	0.051360 	4926 	0.050766
35.55 	0.057027 	4945 	0.056435
35.59 	0.057634 	4945 	0.056568
35.63 	0.053409 	4943 	0.052441
35.67 	0.052813 	4942 	0.052220
35.71 	0.056512 	4937 	0.055919
35.75 	0.059420 	4931 	0.058588
35.79 	0.053933 	4932 	0.053102
35.83 	0.056409 	4946 	0.055462
35.87 	0.049766 	4923 	0.048795
35.91 	0.051959 	4927 	0.050889
35.95 	0.056742 	4917 	0.055431
35.99 	0.056287 	4939 	0.055437
36.03 	0.055837 	4943 	0.054119
36.07 	0.058716 	4939 	0.057886
36.11 	0.053561 	4929 	0.052966
36.15 	0.057906 	4939 	0.056958
36.19 	0.053036 	4940 	0.052088
36.23 	0.057345 	4935 	0.056633
36.27 	0.063350 	4925 	0.062874
36.31 	0.054586 	4928 	0.054111
36.35 	0.054372 	4929 	0.053302
36.39 	0.054664 	4921 	0.053949
36.43 	0.056615 	4928 	0.055545
36.47 	0.055511 	4936 	0.054917
36.51 	0.049868 	4933 	0.049512
36.55 	0.050335 	4927 	0.049740
36.59 	0.050213 	4939 	0.049501
36.63 	0.058203 	4931 	0.056778
36.67 	0.055375 	4930 	0.054544
36.71 	0.048771 	4921 	0.047342
36.75 	0.050769 	4944 	0.050413
36.79 	0.051819 	4921 	0.050747
36.83 	0.045371 	4915 	0.044656
36.87 	0.052791 	4944 	0.051449
36.91 	0.049787 	4941 	0.048958
36.95 	0.054733 	4933 	0.053783
36.99 	0.056940 	4935 	0.055872
37.03 	0.053412 	4924 	0.052103
37.07 	0.054509 	4935 	0.053559
37.11 	0.053901 	4935 	0.053288
37.15 	0.049094 	4909 	0.048974
37.19 	0.054213 	4925 	0.053361
37.23 	0.049207 	4918 	0.048969
37.27 	0.051696 	4894 	0.050619
37.31 	0.049443 	4935 	0.048493
37.35 	0.055488 	4938 	0.054420
37.39 	0.054147 	4931 	0.052959
37.43 	0.051095 	4932 	0.050382
37.47 	0.045242 	4929 	0.044767
37.51 	0.051490 	4933 	0.051134
37.55 	0.054767 	4930 	0.054291
37.59 	0.053510 	4915 	0.052914
37.63 	0.048587 	4919 	0.048091
37.67 	0.050775 	4904 	0.049700
37.71 	0.049909 	4929 	0.048483
37.75 	0.049393 	4940 	0.048918
37.79 	0.059635 	4930 	0.058922
37.83 	0.050000 	4920 	0.049048
37.87 	0.053452 	4939 	0.052147
37.91 	0.051318 	4930 	0.050724
37.95 	0.053648 	4921 	0.053052
37.99 	0.051710 	4912 	0.051352
38.03 	0.048686 	4909 	0.047731
38.07 	0.058260 	4909 	0.057067
38.11 	0.048227 	4935 	0.047277
38.15 	0.054900 	4918 	0.054067
38.19 	0.055984 	4930 	0.055033
38.23 	0.056096 	4938 	0.055028
38.27 	0.055375 	4930 	0.054662
38.31 	0.058656 	4927 	0.057586
38.35 	0.058442 	4928 	0.056877
38.39 	0.061520 	4909 	0.060207
38.43 	0.060212 	4916 	0.059258
38.47 	0.066436 	4907 	0.065600
38.51 	0.058394 	4932 	0.057800
38.55 	0.065438 	4936 	0.064963
38.59 	0.059301 	4924 	0.057874
38.63 	0.057067 	4924 	0.056354
38.67 	0.053879 	4937 	0.053029
38.71 	0.055443 	4924 	0.054967
38.75 	0.048914 	4927 	0.048201
38.79 	0.049047 	4934 	0.048197
38.83 	0.051840 	4919 	0.050768
38.87 	0.046630 	4911 	0.045437
38.91 	0.047114 	4903 	0.046517
38.95 	0.052257 	4918 	0.051542
38.99 	0.043549 	4937 	0.043074
39.03 	0.043778 	4934 	0.043303
39.07 	0.046507 	4924 	0.046150
39.11 	0.047860 	4931 	0.047148
39.15 	0.042726 	4915 	0.042130
39.19 	0.043319 	4917 	0.042843
39.23 	0.047310 	4925 	0.046596
39.27 	0.050713 	4910 	0.049619
39.31 	0.044840 	4884 	0.044121
39.35 	0.047214 	4935 	0.046502
39.39 	0.045040 	4929 	0.044564
39.43 	0.046422 	4933 	0.045571
39.47 	0.046719 	4923 	0.045887
39.51 	0.049350 	4924 	0.048636
39.55 	0.041065 	4919 	0.040589
39.59 	0.044585 	4912 	0.043988
39.63 	0.043681 	4922 	0.043443
39.67 	0.047018 	4913 	0.046422
39.71 	0.043309 	4895 	0.042711
39.75 	0.048498 	4928 	0.048023
39.79 	0.044661 	4926 	0.044185
39.83 	0.043575 	4934 	0.043100
39.87 	0.049949 	4925 	0.049236
39.91 	0.050792 	4922 	0.050197
39.95 	0.040285 	4915 	0.040046
39.99 	0.038929 	4932 	0.038098
40.03 	0.045860 	4928 	0.045623
40.07 	0.043876 	4923 	0.043519
40.11 	0.044142 	4916 	0.044022
40.15 	0.047832 	4913 	0.047475
40.19 	0.045851 	4929 	0.045613
40.23 	0.041363 	4932 	0.040868
40.27 	0.043549 	4937 	0.043193
40.31 	0.041304 	4939 	0.040829
40.35 	0.046961 	4919 	0.046365
40.39 	0.042182 	4931 	0.041707
40.43 	0.046932 	4922 	0.045742
40.47 	0.036397 	4918 	0.035920
40.51 	0.043478 	4922 	0.042864
40.55 	0.041769 	4908 	0.040933
40.59 	0.042333 	4937 	0.041266
40.63 	0.035497 	4930 	0.035259
40.67 	0.043998 	4932 	0.043761
40.71 	0.040146 	4932 	0.040027
40.75 	0.046441 	4931 	0.046084
40.79 	0.044882 	4924 	0.044406
40.83 	0.045049 	4928 	0.044573
40.87 	0.042817 	4928 	0.042341
40.91 	0.037172 	4923 	0.036459
40.95 	0.040098 	4913 	0.039382
40.99 	0.044273 	4924 	0.043916
41.03 	0.046687 	4905 	0.045612
41.07 	0.045030 	4930 	0.044318
41.11 	0.043972 	4935 	0.043259
41.15 	0.042906 	4941 	0.042551
41.19 	0.040568 	4930 	0.040330
41.23 	0.048390 	4939 	0.047659
41.27 	0.036301 	4931 	0.035687
41.31 	0.038111 	4933 	0.037873
41.35 	0.040907 	4938 	0.040195
41.39 	0.041760 	4933 	0.041166
41.43 	0.043619 	4929 	0.043382
41.47 	0.033293 	4926 	0.032698
41.51 	0.044130 	4940 	0.043537
41.55 	0.038906 	4935 	0.038431
41.59 	0.035881 	4933 	0.035525
41.63 	0.040300 	4938 	0.040062
41.67 	0.040486 	4940 	0.040012
41.71 	0.036076 	4934 	0.035720
41.75 	0.043822 	4929 	0.042990
41.79 	0.034790 	4944 	0.034671
41.83 	0.034700 	4928 	0.034343
41.87 	0.040932 	4935 	0.040813
41.91 	0.040924 	4936 	0.040212
41.95 	0.041777 	4931 	0.041539
41.99 	0.040163 	4905 	0.040044
42.03 	0.037255 	4939 	0.036661
42.07 	0.037877 	4937 	0.037284
42.11 	0.043074 	4945 	0.042245
42.15 	0.037465 	4938 	0.036871
42.19 	0.037286 	4908 	0.037167
42.23 	0.038226 	4892 	0.037866
42.27 	0.038777 	4874 	0.038417
42.31 	0.035015 	4855 	0.034533
42.35 	0.038446 	4838 	0.038203
42.39 	0.042256 	4804 	0.041403
42.43 	0.032554 	4792 	0.032432
42.47 	0.043652 	4765 	0.043160
42.51 	0.040692 	4743 	0.040198
42.55 	0.031436 	4708 	0.031063
42.59 	0.037006 	4729 	0.036634
42.63 	0.036101 	4709 	0.035479
42.67 	0.037148 	4684 	0.036898
42.71 	0.039888 	4663 	0.039260
42.75 	0.038120 	4617 	0.037486
42.79 	0.039939 	4582 	0.039172
42.83 	0.036817 	4536 	0.036429
42.87 	0.038453 	4499 	0.037672
42.91 	0.037478 	4456 	0.037346
42.95 	0.036232 	4416 	0.035701
42.99 	0.035120 	4385 	0.034853
43.03 	0.036003 	4333 	0.036003
43.07 	0.038175 	4296 	0.038039
43.11 	0.044183 	4255 	0.043357
43.15 	0.037565 	4206 	0.037148
43.19 	0.036481 	4194 	0.035922
43.23 	0.040202 	4154 	0.039779
43.27 	0.044580 	4105 	0.043866
43.31 	0.039961 	4079 	0.039674
43.35 	0.042659 	4032 	0.041327
43.39 	0.033733 	4002 	0.033148
43.43 	0.035606 	3960 	0.035458
43.47 	0.036215 	3921 	0.036215
43.51 	0.030436 	3877 	0.030285
43.55 	0.034750 	2964 	0.034157
43.59 	0.049255 	1746 	0.048920
43.63 	0.037962 	1001 	0.036792
43.67 	0.041833 	502 	0.041833
43.71 	0.025105 	239 	0.025105
43.75 	0.062500 	16 	0.062500