File: Example_Data/25SC_s1_0027.002.dat
#F C:\frames\spec\25SC_s1_0027.002
#C title =s:27 frm:2 25SC_s1
#C wavelength =0.15406

#S 1  fr_average C:\frames\spec\25SC_s1_0027.002 C:\win32app\speccom\mask.axs chi 0 180 0 360 0.02
#C 2 theta =0.000000 to 180 deg
#C   q   =0.000000 to 81.568 nm^-1
#C  chi  =0.000000 to 360 deg
#C collumns:
#C  1 position (2theta or chi in degrees)
#C  2 average intensity (sum of all counts in the region divided with number of pixels)
#C  3 Number of pixels in region)
#C  4 error (sum of sqrt(intensity) for all pixels divided by number)
#N 4
#L TTh  Int  N_pix  Err
32.99 	0.032787 	61 	0.032787
33.03 	0.055356 	1391 	0.055356
33.07 	0.065366 	2050 	0.063937
33.11 	0.058938 	2579 	0.057802
33.15 	0.053018 	2999 	0.052041
33.19 	0.058648 	3342 	0.057771
33.23 	0.055067 	3523 	0.054235
33.27 	0.049587 	3630 	0.048941
33.31 	0.055191 	3660 	0.054231
33.35 	0.055495 	3694 	0.053751
33.39 	0.058729 	3729 	0.058075
33.43 	0.061420 	3761 	0.060330
33.47 	0.053976 	3798 	0.053359
33.51 	0.062647 	3815 	0.061854
33.55 	0.053084 	3843 	0.052169
33.59 	0.056701 	3880 	0.056097
33.63 	0.054351 	3919 	0.053155
33.67 	0.058928 	3954 	0.058163
33.71 	0.060377 	3975 	0.058904
33.75 	0.059015 	3999 	0.058136
33.79 	0.056174 	4041 	0.055015
33.83 	0.060741 	4050 	0.059873
33.87 	0.060083 	4111 	0.059228
33.91 	0.062425 	4149 	0.061436
33.95 	0.055489 	4181 	0.054929
33.99 	0.055714 	4200 	0.055156
34.03 	0.051838 	4244 	0.051562
34.07 	0.051546 	4268 	0.050586
34.11 	0.061599 	4302 	0.060646
34.15 	0.057723 	4331 	0.057047
34.19 	0.054562 	4362 	0.054025
34.23 	0.058502 	4393 	0.056902
34.27 	0.059249 	4422 	0.057792
34.31 	0.057425 	4458 	0.056505
34.35 	0.053301 	4484 	0.052386
34.39 	0.048867 	4502 	0.047696
34.43 	0.053316 	4539 	0.052929
34.47 	0.052047 	4592 	0.051006
34.51 	0.052323 	4606 	0.051433
34.55 	0.059444 	4643 	0.058561
34.59 	0.061176 	4675 	0.060299
34.63 	0.049045 	4710 	0.048423
34.67 	0.060325 	4741 	0.059213
34.71 	0.055602 	4766 	0.054619
34.75 	0.055948 	4808 	0.054974
34.79 	0.057214 	4824 	0.055635
34.83 	0.058618 	4862 	0.057774
34.87 	0.053615 	4868 	0.052653
34.91 	0.057354 	4882 	0.056754
34.95 	0.055624 	4890 	0.055145
34.99 	0.054932 	4897 	0.053975
35.03 	0.057455 	4943 	0.056151
35.07 	0.056275 	4940 	0.055564
35.11 	0.059834 	4947 	0.059005
35.15 	0.056309 	4937 	0.055123
35.19 	0.057467 	4942 	0.056143
35.23 	0.055814 	4945 	0.054472
35.27 	0.053153 	4948 	0.052206
35.31 	0.050476 	4933 	0.049645
35.35 	0.059692 	4942 	0.058744
35.39 	0.059050 	4945 	0.058576
35.43 	0.060612 	4933 	0.059306
35.47 	0.061042 	4931 	0.060072
35.51 	0.054405 	4926 	0.053335
35.55 	0.057027 	4945 	0.056297
35.59 	0.058241 	4945 	0.056701
35.63 	0.058669 	4943 	0.057958
35.67 	0.054027 	4942 	0.053197
35.71 	0.053676 	4937 	0.053320
35.75 	0.056175 	4931 	0.055462
35.79 	0.060016 	4932 	0.058828
35.83 	0.054387 	4946 	0.053203
35.87 	0.057892 	4923 	0.056940
35.91 	0.059874 	4927 	0.058666
35.95 	0.055115 	4917 	0.054400
35.99 	0.048593 	4939 	0.048356
36.03 	0.055027 	4943 	0.053487
36.07 	0.059121 	4939 	0.058410
36.11 	0.059038 	4929 	0.057850
36.15 	0.057502 	4939 	0.056315
36.19 	0.059312 	4940 	0.058126
36.23 	0.056332 	4935 	0.055027
36.27 	0.052386 	4925 	0.051910
36.31 	0.060674 	4928 	0.059485
36.35 	0.057415 	4929 	0.056445
36.39 	0.058118 	4921 	0.056075
36.43 	0.051948 	4928 	0.051354
36.47 	0.054295 	4936 	0.052970
36.51 	0.056963 	4933 	0.056607
36.55 	0.054597 	4927 	0.054003
36.59 	0.059526 	4939 	0.058577
36.63 	0.049686 	4931 	0.048616
36.67 	0.060243 	4930 	0.058936
36.71 	0.055070 	4921 	0.053880
36.75 	0.056230 	4944 	0.055282
36.79 	0.048567 	4921 	0.047734
36.83 	0.057782 	4915 	0.056590
36.87 	0.059466 	4944 	0.058025
36.91 	0.055252 	4941 	0.054422
36.95 	0.054936 	4933 	0.053392
36.99 	0.056332 	4935 	0.055501
37.03 	0.051178 	4924 	0.050464
37.07 	0.052482 	4935 	0.051751
37.11 	0.051469 	4935 	0.050757
37.15 	0.056631 	4909 	0.055676
37.19 	0.054010 	4925 	0.053297
37.23 	0.047987 	4918 	0.047015
37.27 	0.050879 	4894 	0.049682
37.31 	0.049037 	4935 	0.048563
37.35 	0.052450 	4938 	0.051145
37.39 	0.052930 	4931 	0.052099
37.43 	0.054136 	4932 	0.052810
37.47 	0.052343 	4929 	0.051868
37.51 	0.056761 	4933 	0.056167
37.55 	0.046653 	4930 	0.045821
37.59 	0.052696 	4915 	0.051623
37.63 	0.053060 	4919 	0.052226
37.67 	0.055057 	4904 	0.054579
37.71 	0.050517 	4929 	0.049923
37.75 	0.050000 	4940 	0.049289
37.79 	0.047870 	4930 	0.046920
37.83 	0.051626 	4920 	0.049940
37.87 	0.047783 	4939 	0.047309
37.91 	0.051116 	4930 	0.050284
37.95 	0.049787 	4921 	0.049072
37.99 	0.046621 	4912 	0.045666
38.03 	0.050112 	4909 	0.049396
38.07 	0.049908 	4909 	0.049312
38.11 	0.052685 	4935 	0.052448
38.15 	0.051240 	4918 	0.050049
38.19 	0.052130 	4930 	0.051516
38.23 	0.052045 	4938 	0.051096
38.27 	0.059635 	4930 	0.058684
38.31 	0.053785 	4927 	0.053072
38.35 	0.053977 	4928 	0.053621
38.39 	0.058057 	4909 	0.056863
38.43 	0.061229 	4916 	0.060037
38.47 	0.062767 	4907 	0.061574
38.51 	0.060827 	4932 	0.059402
38.55 	0.059562 	4936 	0.058237
38.59 	0.054833 	4924 	0.054120
38.63 	0.059301 	4924 	0.058231
38.67 	0.054689 	4937 	0.053859
38.71 	0.053412 	4924 	0.052460
38.75 	0.055206 	4927 	0.054374
38.79 	0.056749 	4934 	0.055661
38.83 	0.053669 	4919 	0.053312
38.87 	0.049074 	4911 	0.048596
38.91 	0.051805 	4903 	0.051447
38.95 	0.054900 	4918 	0.053947
38.99 	0.043144 	4937 	0.042788
39.03 	0.047223 	4934 	0.046630
39.07 	0.045491 	4924 	0.045135
39.11 	0.048672 	4931 	0.047959
39.15 	0.046185 	4915 	0.045112
39.19 	0.043116 	4917 	0.042520
39.23 	0.050152 	4925 	0.049082
39.27 	0.039715 	4910 	0.039238
39.31 	0.041769 	4884 	0.041409
39.35 	0.047214 	4935 	0.046264
39.39 	0.042605 	4929 	0.042130
39.43 	0.040746 	4933 	0.040152
39.47 	0.043063 	4923 	0.042944
39.51 	0.040211 	4924 	0.039497
39.55 	0.040862 	4919 	0.040624
39.59 	0.043363 	4912 	0.042648
39.63 	0.048761 	4922 	0.048047
39.67 	0.040301 	4913 	0.039586
39.71 	0.049438 	4895 	0.049319
39.75 	0.045252 	4928 	0.044281
39.79 	0.042834 	4926 	0.042358
39.83 	0.041954 	4934 	0.041479
39.87 	0.045076 	4925 	0.044481
39.91 	0.037586 	4922 	0.037110
39.95 	0.045371 	4915 	0.044299
39.99 	0.043390 	4932 	0.042915
40.03 	0.045860 	4928 	0.045266
40.07 	0.043673 	4923 	0.042959
40.11 	0.046989 	4916 	0.046155
40.15 	0.041930 	4913 	0.041572
40.19 	0.046257 	4929 	0.044950
40.23 	0.040552 	4932 	0.039958
40.27 	0.049625 	4937 	0.048795
40.31 	0.045353 	4939 	0.044385
40.35 	0.042488 	4919 	0.042131
40.39 	0.046644 	4931 	0.046525
40.43 	0.044900 	4922 	0.044543
40.47 	0.041887 	4918 	0.041172
40.51 	0.048354 	4922 	0.047759
40.55 	0.041769 	4908 	0.040933
40.59 	0.039498 	4937 	0.038904
40.63 	0.039148 	4930 	0.038673
40.67 	0.041363 	4932 	0.040531
40.71 	0.039943 	4932 	0.039706
40.75 	0.046441 	4931 	0.045609
40.79 	0.048335 	4924 	0.047740
40.83 	0.046266 	4928 	0.045196
40.87 	0.038961 	4928 	0.038604
40.91 	0.042860 	4923 	0.042384
40.95 	0.042744 	4913 	0.041671
40.99 	0.045288 	4924 	0.044575
41.03 	0.044241 	4905 	0.043882
41.07 	0.038945 	4930 	0.038589
41.11 	0.039716 	4935 	0.039004
41.15 	0.043513 	4941 	0.042802
41.19 	0.036714 	4930 	0.036714
41.23 	0.043126 	4939 	0.042533
41.27 	0.044210 	4931 	0.043379
41.31 	0.042570 	4933 	0.041977
41.35 	0.037667 	4938 	0.037430
41.39 	0.039124 	4933 	0.038531
41.43 	0.043417 	4929 	0.042703
41.47 	0.041413 	4926 	0.040699
41.51 	0.046154 	4940 	0.045205
41.55 	0.043161 	4935 	0.042211
41.59 	0.041962 	4933 	0.041606
41.63 	0.045768 	4938 	0.045174
41.67 	0.038664 	4940 	0.038308
41.71 	0.044386 	4934 	0.043317
41.75 	0.038547 	4929 	0.038310
41.79 	0.041464 	4944 	0.041227
41.83 	0.041599 	4928 	0.041480
41.87 	0.038298 	4935 	0.038179
41.91 	0.035454 	4936 	0.034979
41.95 	0.036707 	4931 	0.036350
41.99 	0.036086 	4905 	0.035250
42.03 	0.043329 	4939 	0.042380
42.07 	0.034434 	4937 	0.034078
42.11 	0.040243 	4945 	0.039295
42.15 	0.044350 	4938 	0.043520
42.19 	0.036879 	4908 	0.036640
42.23 	0.039861 	4892 	0.039362
42.27 	0.038572 	4874 	0.038572
42.31 	0.042430 	4855 	0.041707
42.35 	0.037412 	4838 	0.037291
42.39 	0.039967 	4804 	0.039845
42.43 	0.031302 	4792 	0.030813
42.47 	0.034627 	4765 	0.033767
42.51 	0.034577 	4743 	0.034063
42.55 	0.040569 	4708 	0.040072
42.59 	0.037852 	4729 	0.037480
42.63 	0.041198 	4709 	0.040949
42.67 	0.038215 	4684 	0.037715
42.71 	0.040103 	4663 	0.039726
42.75 	0.041152 	4617 	0.040116
42.79 	0.035574 	4582 	0.035446
42.83 	0.037478 	4536 	0.037220
42.87 	0.040898 	4499 	0.040117
42.91 	0.038375 	4456 	0.037981
42.95 	0.036458 	4416 	0.036326
42.99 	0.045610 	4385 	0.044809
43.03 	0.043619 	4333 	0.042943
43.07 	0.036778 	4296 	0.036506
43.11 	0.034783 	4255 	0.034507
43.15 	0.035426 	4206 	0.035147
43.19 	0.036004 	4194 	0.035305
43.23 	0.038036 	4154 	0.037613
43.27 	0.035810 	4105 	0.035667
43.31 	0.035303 	4079 	0.034728
43.35 	0.040179 	4032 	0.039452
43.39 	0.042229 	4002 	0.041351
43.43 	0.041667 	3960 	0.041075
43.47 	0.039276 	3921 	0.038977
43.51 	0.039464 	3877 	0.039161
43.55 	0.042510 	2964 	0.042312
43.59 	0.032646 	1746 	0.032646
43.63 	0.045954 	1001 	0.045954
43.67 	0.029880 	502 	0.029880
43.71 	0.016736 	239 	0.016736
43.75 	0.000000 	16 	0.000000