File: Example_Data/25SC_s1_0044.000.dat
#F C:\frames\spec\25SC_s1_0044.000
#C title =s:44 frm:0 25SC_s1
#C wavelength =0.15406

#S 1  fr_average C:\frames\spec\25SC_s1_0044.000 C:\win32app\speccom\mask.axs chi 0 180 0 360 0.02
#C 2 theta =0.000000 to 180 deg
#C   q   =0.000000 to 81.568 nm^-1
#C  chi  =0.000000 to 360 deg
#C collumns:
#C  1 position (2theta or chi in degrees)
#C  2 average intensity (sum of all counts in the region divided with number of pixels)
#C  3 Number of pixels in region)
#C  4 error (sum of sqrt(intensity) for all pixels divided by number)
#N 4
#L TTh  Int  N_pix  Err
32.99 	0.049180 	61 	0.049180
33.03 	0.055356 	1391 	0.054935
33.07 	0.065366 	2050 	0.064509
33.11 	0.055060 	2579 	0.054152
33.15 	0.062021 	2999 	0.060653
33.19 	0.063136 	3342 	0.062435
33.23 	0.056202 	3523 	0.055204
33.27 	0.058678 	3630 	0.057871
33.31 	0.054645 	3660 	0.053524
33.35 	0.070384 	3694 	0.069274
33.39 	0.056315 	3729 	0.055530
33.43 	0.050253 	3761 	0.049630
33.47 	0.062401 	3798 	0.061476
33.51 	0.060550 	3815 	0.059783
33.55 	0.062972 	3843 	0.061575
33.59 	0.057732 	3880 	0.056977
33.63 	0.060219 	3919 	0.058850
33.67 	0.056146 	3954 	0.055405
33.71 	0.061887 	3975 	0.061150
33.75 	0.058015 	3999 	0.057282
33.79 	0.059886 	4041 	0.057857
33.83 	0.055309 	4050 	0.054296
33.87 	0.058380 	4111 	0.057810
33.91 	0.061943 	4149 	0.061237
33.95 	0.070318 	4181 	0.068193
33.99 	0.063810 	4200 	0.062833
34.03 	0.059614 	4244 	0.058371
34.07 	0.051546 	4268 	0.050723
34.11 	0.056718 	4302 	0.055901
34.15 	0.059571 	4331 	0.058489
34.19 	0.058918 	4362 	0.057978
34.23 	0.056681 	4393 	0.056148
34.27 	0.067164 	4422 	0.066502
34.31 	0.061014 	4458 	0.060094
34.35 	0.050178 	4484 	0.049656
34.39 	0.058196 	4502 	0.057676
34.43 	0.062789 	4539 	0.061219
34.47 	0.053789 	4592 	0.053279
34.51 	0.054928 	4606 	0.054165
34.55 	0.054275 	4643 	0.053392
34.59 	0.056471 	4675 	0.055719
34.63 	0.055414 	4710 	0.054399
34.67 	0.068340 	4741 	0.067104
34.71 	0.065044 	4766 	0.063672
34.75 	0.052829 	4808 	0.052098
34.79 	0.053690 	4824 	0.052476
34.83 	0.052448 	4862 	0.051484
34.87 	0.060394 	4868 	0.059432
34.91 	0.057149 	4882 	0.055709
34.95 	0.059918 	4890 	0.058840
34.99 	0.057178 	4897 	0.055862
35.03 	0.061097 	4943 	0.060148
35.07 	0.062146 	4940 	0.060960
35.11 	0.057611 	4947 	0.056525
35.15 	0.053069 	4937 	0.051645
35.19 	0.059288 	4942 	0.058221
35.23 	0.061881 	4945 	0.061051
35.27 	0.061439 	4948 	0.060729
35.31 	0.060004 	4933 	0.059054
35.35 	0.062121 	4942 	0.061172
35.39 	0.054601 	4945 	0.053890
35.43 	0.053720 	4933 	0.052394
35.47 	0.055770 	4931 	0.054700
35.51 	0.058668 	4926 	0.057598
35.55 	0.058645 	4945 	0.057934
35.59 	0.053185 	4945 	0.052237
35.63 	0.056443 	4943 	0.055732
35.67 	0.058681 	4942 	0.057377
35.71 	0.059348 	4937 	0.058399
35.75 	0.060028 	4931 	0.059316
35.79 	0.059408 	4932 	0.058695
35.83 	0.060857 	4946 	0.059318
35.87 	0.058704 	4923 	0.057633
35.91 	0.051756 	4927 	0.051280
35.95 	0.060199 	4917 	0.059365
35.99 	0.054667 	4939 	0.053955
36.03 	0.054623 	4943 	0.052944
36.07 	0.056894 	4939 	0.056064
36.11 	0.055589 	4929 	0.054995
36.15 	0.051022 	4939 	0.049936
36.19 	0.061943 	4940 	0.060639
36.23 	0.055319 	4935 	0.054469
36.27 	0.061523 	4925 	0.060571
36.31 	0.058847 	4928 	0.057064
36.35 	0.061879 	4929 	0.061284
36.39 	0.061979 	4921 	0.061146
36.43 	0.056209 	4928 	0.054288
36.47 	0.057131 	4936 	0.056182
36.51 	0.056558 	4933 	0.055964
36.55 	0.056424 	4927 	0.055473
36.59 	0.053857 	4939 	0.052908
36.63 	0.051511 	4931 	0.050560
36.67 	0.056389 	4930 	0.055795
36.71 	0.057509 	4921 	0.056675
36.75 	0.058252 	4944 	0.057305
36.79 	0.062995 	4921 	0.061567
36.83 	0.063479 	4915 	0.062645
36.87 	0.053196 	4944 	0.052366
36.91 	0.055050 	4941 	0.054082
36.95 	0.058180 	4933 	0.056636
36.99 	0.059574 	4935 	0.058981
37.03 	0.056864 	4924 	0.055556
37.07 	0.057548 	4935 	0.056005
37.11 	0.060385 	4935 	0.059673
37.15 	0.060297 	4909 	0.059581
37.19 	0.064365 	4925 	0.062819
37.23 	0.062424 	4918 	0.061828
37.27 	0.055170 	4894 	0.054451
37.31 	0.053495 	4935 	0.053021
37.35 	0.055488 	4938 	0.054539
37.39 	0.051511 	4931 	0.049966
37.43 	0.056772 	4932 	0.055703
37.47 	0.057415 	4929 	0.056940
37.51 	0.062842 	4933 	0.061061
37.55 	0.053550 	4930 	0.052480
37.59 	0.053306 	4915 	0.052472
37.63 	0.058752 	4919 	0.057085
37.67 	0.056281 	4904 	0.055206
37.71 	0.057415 	4929 	0.056346
37.75 	0.058300 	4940 	0.057351
37.79 	0.053753 	4930 	0.053158
37.83 	0.060976 	4920 	0.059408
37.87 	0.058919 	4939 	0.058326
37.91 	0.057404 	4930 	0.056928
37.95 	0.057102 	4921 	0.056626
37.99 	0.057614 	4912 	0.057018
38.03 	0.060501 	4909 	0.059546
38.07 	0.063353 	4909 	0.061921
38.11 	0.058156 	4935 	0.057068
38.15 	0.057137 	4918 	0.056303
38.19 	0.059432 	4930 	0.058719
38.23 	0.073917 	4938 	0.072849
38.27 	0.070791 	4930 	0.069841
38.31 	0.066775 	4927 	0.064715
38.35 	0.074472 	4928 	0.073284
38.39 	0.078224 	4909 	0.076314
38.43 	0.081367 	4916 	0.078269
38.47 	0.083350 	4907 	0.081082
38.51 	0.082522 	4932 	0.081097
38.55 	0.082253 	4936 	0.080354
38.59 	0.077985 	4924 	0.076677
38.63 	0.071690 	4924 	0.070381
38.67 	0.068665 	4937 	0.067360
38.71 	0.072299 	4924 	0.070495
38.75 	0.062716 	4927 	0.061626
38.79 	0.058573 	4934 	0.057505
38.83 	0.052246 	4919 	0.051651
38.87 	0.054368 	4911 	0.053771
38.91 	0.053845 	4903 	0.052889
38.95 	0.052257 	4918 	0.051304
38.99 	0.042536 	4937 	0.042299
39.03 	0.050466 	4934 	0.049991
39.07 	0.053412 	4924 	0.052222
39.11 	0.052119 	4931 	0.051268
39.15 	0.051068 	4915 	0.050115
39.19 	0.044539 	4917 	0.044182
39.23 	0.046294 	4925 	0.045918
39.27 	0.046029 	4910 	0.045293
39.31 	0.047912 	4884 	0.047552
39.35 	0.040122 	4935 	0.039647
39.39 	0.049300 	4929 	0.048230
39.43 	0.047436 	4933 	0.047198
39.47 	0.051188 	4923 	0.050355
39.51 	0.047319 	4924 	0.046962
39.55 	0.050213 	4919 	0.049380
39.59 	0.045195 	4912 	0.044718
39.63 	0.050386 	4922 	0.049315
39.67 	0.042133 	4913 	0.041656
39.71 	0.043922 	4895 	0.043324
39.75 	0.048904 	4928 	0.047834
39.79 	0.047706 	4926 	0.047111
39.83 	0.044386 	4934 	0.043417
39.87 	0.039391 	4925 	0.038677
39.91 	0.043478 	4922 	0.042645
39.95 	0.048016 	4915 	0.047420
39.99 	0.047242 	4932 	0.046886
40.03 	0.044643 	4928 	0.043930
40.07 	0.045298 	4923 	0.044822
40.11 	0.041497 	4916 	0.040524
40.15 	0.044372 	4913 	0.043895
40.19 	0.038750 	4929 	0.038631
40.23 	0.043390 	4932 	0.042915
40.27 	0.041523 	4937 	0.040930
40.31 	0.040292 	4939 	0.039580
40.35 	0.045944 	4919 	0.045468
40.39 	0.041168 	4931 	0.040931
40.43 	0.043072 	4922 	0.042834
40.47 	0.046157 	4918 	0.045085
40.51 	0.048761 	4922 	0.048146
40.55 	0.039120 	4908 	0.038762
40.59 	0.040510 	4937 	0.039917
40.63 	0.039757 	4930 	0.039281
40.67 	0.036496 	4932 	0.036140
40.71 	0.045012 	4932 	0.044656
40.75 	0.037112 	4931 	0.036993
40.79 	0.045491 	4924 	0.044659
40.83 	0.040990 	4928 	0.040515
40.87 	0.045049 	4928 	0.044217
40.91 	0.042657 	4923 	0.042062
40.95 	0.038469 	4913 	0.037973
40.99 	0.033712 	4924 	0.033356
41.03 	0.038940 	4905 	0.038701
41.07 	0.041176 	4930 	0.040820
41.11 	0.037690 	4935 	0.037453
41.15 	0.042906 	4941 	0.042551
41.19 	0.047059 	4930 	0.046227
41.23 	0.047176 	4939 	0.046938
41.27 	0.041574 	4931 	0.041099
41.31 	0.045003 	4933 	0.044409
41.35 	0.042122 	4938 	0.041272
41.39 	0.048855 	4933 	0.048142
41.43 	0.043011 	4929 	0.042773
41.47 	0.038571 	4926 	0.038214
41.51 	0.045142 	4940 	0.044430
41.55 	0.042756 	4935 	0.041925
41.59 	0.038313 	4933 	0.038195
41.63 	0.037870 	4938 	0.037395
41.67 	0.035020 	4940 	0.034783
41.71 	0.037900 	4934 	0.037663
41.75 	0.037127 	4929 	0.036890
41.79 	0.042071 	4944 	0.041597
41.83 	0.043831 	4928 	0.043475
41.87 	0.042148 	4935 	0.042029
41.91 	0.039303 	4936 	0.038947
41.95 	0.039140 	4931 	0.038784
41.99 	0.035474 	4905 	0.035116
42.03 	0.043531 	4939 	0.042938
42.07 	0.038282 	4937 	0.037926
42.11 	0.038220 	4945 	0.038102
42.15 	0.036047 	4938 	0.035928
42.19 	0.035860 	4908 	0.035502
42.23 	0.037612 	4892 	0.037493
42.27 	0.042470 	4874 	0.041749
42.31 	0.035633 	4855 	0.035271
42.35 	0.039686 	4838 	0.039323
42.39 	0.037469 	4804 	0.037225
42.43 	0.034432 	4792 	0.034310
42.47 	0.041343 	4765 	0.040974
42.51 	0.039427 	4743 	0.039056
42.55 	0.043543 	4708 	0.042921
42.59 	0.037006 	4729 	0.036139
42.63 	0.039924 	4709 	0.039550
42.67 	0.042272 	4684 	0.041896
42.71 	0.039245 	4663 	0.038994
42.75 	0.035954 	4617 	0.035700
42.79 	0.036229 	4582 	0.035589
42.83 	0.044974 	4536 	0.044328
42.87 	0.036008 	4499 	0.035617
42.91 	0.037702 	4456 	0.037439
42.95 	0.033514 	4416 	0.032851
42.99 	0.038312 	4385 	0.037778
43.03 	0.039926 	4333 	0.039791
43.07 	0.035149 	4296 	0.034604
43.11 	0.044888 	4255 	0.044613
43.15 	0.038516 	4206 	0.038099
43.19 	0.034812 	4194 	0.034253
43.23 	0.037313 	4154 	0.037313
43.27 	0.041657 	4105 	0.040943
43.31 	0.039470 	4079 	0.039327
43.35 	0.039435 	4032 	0.038708
43.39 	0.033483 	4002 	0.033044
43.43 	0.037121 	3960 	0.036973
43.47 	0.034940 	3921 	0.034641
43.51 	0.040237 	3877 	0.039482
43.55 	0.042173 	2964 	0.041382
43.59 	0.037801 	1746 	0.037801
43.63 	0.038961 	1001 	0.038961
43.67 	0.037849 	502 	0.037849
43.71 	0.041841 	239 	0.041841
43.75 	0.062500 	16 	0.062500