File: Example_Data/25SC_s1_0030.001.dat
#F C:\frames\spec\25SC_s1_0030.001
#C title =s:30 frm:1 25SC_s1
#C wavelength =0.15406

#S 1  fr_average C:\frames\spec\25SC_s1_0030.001 C:\win32app\speccom\mask.axs chi 0 180 0 360 0.02
#C 2 theta =0.000000 to 180 deg
#C   q   =0.000000 to 81.568 nm^-1
#C  chi  =0.000000 to 360 deg
#C collumns:
#C  1 position (2theta or chi in degrees)
#C  2 average intensity (sum of all counts in the region divided with number of pixels)
#C  3 Number of pixels in region)
#C  4 error (sum of sqrt(intensity) for all pixels divided by number)
#N 4
#L TTh  Int  N_pix  Err
32.99 	0.049180 	61 	0.049180
33.03 	0.064702 	1391 	0.063859
33.07 	0.057073 	2050 	0.055930
33.11 	0.052734 	2579 	0.051825
33.15 	0.058353 	2999 	0.057376
33.19 	0.058648 	3342 	0.057596
33.23 	0.056770 	3523 	0.055606
33.27 	0.063085 	3630 	0.061794
33.31 	0.056831 	3660 	0.056164
33.35 	0.060368 	3694 	0.059575
33.39 	0.057924 	3729 	0.056668
33.43 	0.063813 	3761 	0.063190
33.47 	0.057399 	3798 	0.056319
33.51 	0.057143 	3815 	0.056375
33.55 	0.053864 	3843 	0.053407
33.59 	0.055928 	3880 	0.054720
33.63 	0.056647 	3919 	0.056348
33.67 	0.061963 	3954 	0.060777
33.71 	0.058868 	3975 	0.057394
33.75 	0.064516 	3999 	0.062905
33.79 	0.063598 	4041 	0.062293
33.83 	0.051111 	4050 	0.050677
33.87 	0.057164 	4111 	0.055596
33.91 	0.062425 	4149 	0.061131
33.95 	0.057403 	4181 	0.057403
33.99 	0.060952 	4200 	0.060116
34.03 	0.051838 	4244 	0.050182
34.07 	0.055295 	4268 	0.054609
34.11 	0.056485 	4302 	0.054965
34.15 	0.055184 	4331 	0.053966
34.19 	0.062127 	4362 	0.060628
34.23 	0.055771 	4393 	0.054970
34.27 	0.054274 	4422 	0.053479
34.31 	0.058546 	4458 	0.057495
34.35 	0.053747 	4484 	0.052048
34.39 	0.055087 	4502 	0.053785
34.43 	0.056400 	4539 	0.054851
34.47 	0.049434 	4592 	0.048924
34.51 	0.055580 	4606 	0.054944
34.55 	0.057721 	4643 	0.056333
34.59 	0.060749 	4675 	0.059350
34.63 	0.058386 	4710 	0.057391
34.67 	0.054419 	4741 	0.053925
34.71 	0.052875 	4766 	0.051891
34.75 	0.058860 	4808 	0.058007
34.79 	0.055556 	4824 	0.054706
34.83 	0.056355 	4862 	0.055271
34.87 	0.052794 	4868 	0.052192
34.91 	0.051618 	4882 	0.051138
34.95 	0.059100 	4890 	0.058262
34.99 	0.056157 	4897 	0.054961
35.03 	0.056443 	4943 	0.054903
35.07 	0.055466 	4940 	0.054991
35.11 	0.052557 	4947 	0.051373
35.15 	0.060968 	4937 	0.059663
35.19 	0.059895 	4942 	0.059421
35.23 	0.057836 	4945 	0.056770
35.27 	0.057195 	4948 	0.055656
35.31 	0.054125 	4933 	0.053175
35.35 	0.052813 	4942 	0.052338
35.39 	0.053994 	4945 	0.053046
35.43 	0.051287 	4933 	0.050575
35.47 	0.056784 	4931 	0.055477
35.51 	0.057450 	4926 	0.056856
35.55 	0.057230 	4945 	0.056045
35.59 	0.058443 	4945 	0.057140
35.63 	0.058264 	4943 	0.057672
35.67 	0.059085 	4942 	0.057900
35.71 	0.060766 	4937 	0.060172
35.75 	0.054756 	4931 	0.053805
35.79 	0.058191 	4932 	0.057479
35.83 	0.053174 	4946 	0.052464
35.87 	0.061548 	4923 	0.060596
35.91 	0.052365 	4927 	0.052008
35.95 	0.053895 	4917 	0.053061
35.99 	0.059324 	4939 	0.058731
36.03 	0.055837 	4943 	0.055600
36.07 	0.059729 	4939 	0.058780
36.11 	0.055184 	4929 	0.054094
36.15 	0.055274 	4939 	0.054326
36.19 	0.055870 	4940 	0.054685
36.23 	0.060993 	4935 	0.059212
36.27 	0.050761 	4925 	0.050167
36.31 	0.050325 	4928 	0.049730
36.35 	0.056198 	4929 	0.055604
36.39 	0.054257 	4921 	0.053781
36.43 	0.056209 	4928 	0.055358
36.47 	0.060981 	4936 	0.060031
36.51 	0.056152 	4933 	0.055202
36.55 	0.055815 	4927 	0.055339
36.59 	0.055477 	4939 	0.054409
36.63 	0.057189 	4931 	0.056001
36.67 	0.058012 	4930 	0.057418
36.71 	0.055883 	4921 	0.054454
36.75 	0.058455 	4944 	0.057625
36.79 	0.054867 	4921 	0.054272
36.83 	0.057172 	4915 	0.055980
36.87 	0.057646 	4944 	0.056935
36.91 	0.050395 	4941 	0.049427
36.95 	0.055342 	4933 	0.054748
36.99 	0.058561 	4935 	0.057473
37.03 	0.055443 	4924 	0.054709
37.07 	0.053698 	4935 	0.052966
37.11 	0.054306 	4935 	0.052862
37.15 	0.056223 	4909 	0.055627
37.19 	0.056447 	4925 	0.055733
37.23 	0.052664 	4918 	0.051949
37.27 	0.053331 	4894 	0.052353
37.31 	0.057143 	4935 	0.056075
37.35 	0.059336 	4938 	0.058624
37.39 	0.059014 	4931 	0.058539
37.43 	0.056164 	4932 	0.055808
37.47 	0.054372 	4929 	0.053421
37.51 	0.053720 	4933 	0.053364
37.55 	0.053955 	4930 	0.053223
37.59 	0.053510 	4915 	0.052795
37.63 	0.054279 	4919 	0.053088
37.67 	0.057096 	4904 	0.056141
37.71 	0.054981 	4929 	0.054149
37.75 	0.056883 	4940 	0.056033
37.79 	0.053550 	4930 	0.052599
37.83 	0.054878 	4920 	0.054045
37.87 	0.053857 	4939 	0.053501
37.91 	0.057606 	4930 	0.056775
37.95 	0.055070 	4921 	0.054237
37.99 	0.051507 	4912 	0.050791
38.03 	0.055205 	4909 	0.054489
38.07 	0.055816 	4909 	0.055339
38.11 	0.054711 	4935 	0.053880
38.15 	0.059170 	4918 	0.057841
38.19 	0.051927 	4930 	0.051333
38.23 	0.056501 	4938 	0.055433
38.27 	0.058012 	4930 	0.057299
38.31 	0.064745 	4927 	0.063913
38.35 	0.068588 	4928 	0.067756
38.39 	0.070279 	4909 	0.068708
38.43 	0.075468 	4916 	0.073989
38.47 	0.073772 	4907 	0.072459
38.51 	0.070762 	4932 	0.069337
38.55 	0.070097 	4936 	0.068554
38.59 	0.068846 	4924 	0.067895
38.63 	0.070065 	4924 	0.068637
38.67 	0.068463 	4937 	0.067039
38.71 	0.062348 	4924 	0.061039
38.75 	0.059671 	4927 	0.058344
38.79 	0.061208 	4934 	0.059665
38.83 	0.053263 	4919 	0.052906
38.87 	0.055386 	4911 	0.053905
38.91 	0.052417 	4903 	0.051680
38.95 	0.055714 	4918 	0.054642
38.99 	0.047600 	4937 	0.047125
39.03 	0.053709 	4934 	0.052759
39.07 	0.044273 	4924 	0.043678
39.11 	0.048063 	4931 	0.047450
39.15 	0.050865 	4915 	0.049554
39.19 	0.051454 	4917 	0.050978
39.23 	0.046904 	4925 	0.046071
39.27 	0.045621 	4910 	0.044905
39.31 	0.042998 	4884 	0.042158
39.35 	0.044782 	4935 	0.044189
39.39 	0.045851 	4929 	0.045138
39.43 	0.043179 	4933 	0.042822
39.47 	0.043876 	4923 	0.042805
39.51 	0.044070 	4924 	0.043832
39.55 	0.046148 	4919 	0.045433
39.59 	0.046010 	4912 	0.045533
39.63 	0.048557 	4922 	0.047605
39.67 	0.049054 	4913 	0.048457
39.71 	0.046578 	4895 	0.045721
39.75 	0.045860 	4928 	0.045147
39.79 	0.042225 	4926 	0.041511
39.83 	0.044183 	4934 	0.044064
39.87 	0.039594 	4925 	0.039356
39.91 	0.046729 	4922 	0.045539
39.95 	0.044964 	4915 	0.044368
39.99 	0.045620 	4932 	0.045027
40.03 	0.046875 	4928 	0.046756
40.07 	0.043063 	4923 	0.042587
40.11 	0.043735 	4916 	0.043496
40.15 	0.041115 	4913 	0.040519
40.19 	0.044837 	4929 	0.044480
40.23 	0.045620 	4932 	0.045383
40.27 	0.039903 	4937 	0.039191
40.31 	0.042519 	4939 	0.041807
40.35 	0.043708 	4919 	0.043113
40.39 	0.038126 	4931 	0.037651
40.43 	0.045104 	4922 	0.044985
40.47 	0.042700 	4918 	0.042085
40.51 	0.037993 	4922 	0.037636
40.55 	0.038101 	4908 	0.037743
40.59 	0.039700 	4937 	0.039582
40.63 	0.038134 	4930 	0.037896
40.67 	0.045620 	4932 	0.044789
40.71 	0.041768 	4932 	0.041649
40.75 	0.038735 	4931 	0.038259
40.79 	0.043867 	4924 	0.043391
40.83 	0.042208 	4928 	0.041613
40.87 	0.043019 	4928 	0.042544
40.91 	0.040219 	4923 	0.039743
40.95 	0.042337 	4913 	0.041860
40.99 	0.040008 	4924 	0.039532
41.03 	0.040979 	4905 	0.040381
41.07 	0.038337 	4930 	0.038099
41.11 	0.039514 	4935 	0.039039
41.15 	0.040478 	4941 	0.039885
41.19 	0.038945 	4930 	0.037856
41.23 	0.037255 	4939 	0.036899
41.27 	0.038937 	4931 	0.038225
41.31 	0.042773 	4933 	0.042536
41.35 	0.036249 	4938 	0.036012
41.39 	0.039935 	4933 	0.039579
41.43 	0.040576 	4929 	0.040220
41.47 	0.038368 	4926 	0.037773
41.51 	0.037045 	4940 	0.036926
41.55 	0.036069 	4935 	0.035475
41.59 	0.039124 	4933 	0.038649
41.63 	0.038072 	4938 	0.037716
41.67 	0.037652 	4940 	0.037415
41.71 	0.037292 	4934 	0.037292
41.75 	0.042199 	4929 	0.041843
41.79 	0.042273 	4944 	0.042036
41.83 	0.037135 	4928 	0.036778
41.87 	0.040122 	4935 	0.039765
41.91 	0.035049 	4936 	0.034455
41.95 	0.035287 	4931 	0.034931
41.99 	0.037309 	4905 	0.037070
42.03 	0.039684 	4939 	0.039091
42.07 	0.042536 	4937 	0.042061
42.11 	0.037816 	4945 	0.037224
42.15 	0.039692 	4938 	0.039218
42.19 	0.043195 	4908 	0.042359
42.23 	0.036795 	4892 	0.036196
42.27 	0.039393 	4874 	0.038792
42.31 	0.037899 	4855 	0.037416
42.35 	0.037205 	4838 	0.036842
42.39 	0.033930 	4804 	0.033564
42.43 	0.037145 	4792 	0.036901
42.47 	0.036097 	4765 	0.035605
42.51 	0.034156 	4743 	0.033538
42.55 	0.040994 	4708 	0.040248
42.59 	0.033199 	4729 	0.032580
42.63 	0.040348 	4709 	0.039851
42.67 	0.037788 	4684 	0.037288
42.71 	0.034098 	4663 	0.033721
42.75 	0.039636 	4617 	0.039509
42.79 	0.040375 	4582 	0.040375
42.83 	0.041667 	4536 	0.041021
42.87 	0.037342 	4499 	0.037081
42.91 	0.032989 	4456 	0.032726
42.95 	0.034873 	4416 	0.034343
42.99 	0.034664 	4385 	0.034263
43.03 	0.035080 	4333 	0.034674
43.07 	0.038175 	4296 	0.037630
43.11 	0.032902 	4255 	0.032627
43.15 	0.037803 	4206 	0.037246
43.19 	0.039819 	4194 	0.038841
43.23 	0.038999 	4154 	0.038434
43.27 	0.039220 	4105 	0.038935
43.31 	0.041432 	4079 	0.040857
43.35 	0.039931 	4032 	0.039349
43.39 	0.035482 	4002 	0.035043
43.43 	0.039646 	3960 	0.039203
43.47 	0.035195 	3921 	0.034598
43.51 	0.038948 	3877 	0.038343
43.55 	0.034076 	2964 	0.033680
43.59 	0.035510 	1746 	0.034503
43.63 	0.042957 	1001 	0.042957
43.67 	0.039841 	502 	0.039841
43.71 	0.058577 	239 	0.058577
43.75 	0.062500 	16 	0.062500