File: Example_Data/25SC_s1_0014.003.dat
#F C:\frames\spec\25SC_s1_0014.003
#C title =s:14 frm:3 25SC_s1
#C wavelength =0.15406

#S 1  fr_average C:\frames\spec\25SC_s1_0014.003 C:\win32app\speccom\mask.axs chi 0 180 0 360 0.02
#C 2 theta =0.000000 to 180 deg
#C   q   =0.000000 to 81.568 nm^-1
#C  chi  =0.000000 to 360 deg
#C collumns:
#C  1 position (2theta or chi in degrees)
#C  2 average intensity (sum of all counts in the region divided with number of pixels)
#C  3 Number of pixels in region)
#C  4 error (sum of sqrt(intensity) for all pixels divided by number)
#N 4
#L TTh  Int  N_pix  Err
32.99 	0.065574 	61 	0.065574
33.03 	0.059669 	1391 	0.059248
33.07 	0.065854 	2050 	0.065282
33.11 	0.062040 	2579 	0.061585
33.15 	0.055018 	2999 	0.053456
33.19 	0.060144 	3342 	0.059443
33.23 	0.055634 	3523 	0.055468
33.27 	0.060606 	3630 	0.059315
33.31 	0.062022 	3660 	0.060902
33.35 	0.057120 	3694 	0.055375
33.39 	0.060070 	3729 	0.058630
33.43 	0.056900 	3761 	0.056277
33.47 	0.060032 	3798 	0.059106
33.51 	0.061075 	3815 	0.059693
33.55 	0.059589 	3843 	0.057887
33.59 	0.058763 	3880 	0.057857
33.63 	0.054606 	3919 	0.053709
33.67 	0.053364 	3954 	0.052919
33.71 	0.057358 	3975 	0.056032
33.75 	0.063016 	3999 	0.061990
33.79 	0.057164 	4041 	0.056149
33.83 	0.063210 	4050 	0.062174
33.87 	0.058866 	4111 	0.058012
33.91 	0.056881 	4149 	0.055893
33.95 	0.062425 	4181 	0.059740
33.99 	0.053810 	4200 	0.053531
34.03 	0.069039 	4244 	0.068210
34.07 	0.055295 	4268 	0.054472
34.11 	0.065551 	4302 	0.064734
34.15 	0.054953 	4331 	0.054276
34.19 	0.056167 	4362 	0.054690
34.23 	0.056681 	4393 	0.055614
34.27 	0.057892 	4422 	0.056568
34.31 	0.060341 	4458 	0.059421
34.35 	0.063336 	4484 	0.062030
34.39 	0.058641 	4502 	0.057448
34.43 	0.059925 	4539 	0.058635
34.47 	0.058798 	4592 	0.057905
34.51 	0.058185 	4606 	0.057295
34.55 	0.058583 	4643 	0.057195
34.59 	0.054759 	4675 	0.054258
34.63 	0.060510 	4710 	0.059515
34.67 	0.057372 	4741 	0.056363
34.71 	0.056441 	4766 	0.055704
34.75 	0.060732 	4808 	0.059392
34.79 	0.067164 	4824 	0.065707
34.83 	0.058824 	4862 	0.057498
34.87 	0.057108 	4868 	0.055784
34.91 	0.065752 	4882 	0.063832
34.95 	0.056442 	4890 	0.055843
34.99 	0.064938 	4897 	0.062785
35.03 	0.056646 	4943 	0.055698
35.07 	0.056478 	4940 	0.056003
35.11 	0.058217 	4947 	0.057625
35.15 	0.060563 	4937 	0.059377
35.19 	0.057871 	4942 	0.057160
35.23 	0.051972 	4945 	0.051498
35.27 	0.061035 	4948 	0.060088
35.31 	0.063450 	4933 	0.061432
35.35 	0.058883 	4942 	0.057441
35.39 	0.061881 	4945 	0.060578
35.43 	0.058990 	4933 	0.058159
35.47 	0.059420 	4931 	0.058331
35.51 	0.063946 	4926 	0.063233
35.55 	0.061678 	4945 	0.060593
35.59 	0.065319 	4945 	0.063897
35.63 	0.065547 	4943 	0.064599
35.67 	0.059085 	4942 	0.058137
35.71 	0.060158 	4937 	0.059327
35.75 	0.058000 	4931 	0.057406
35.79 	0.065288 	4932 	0.064100
35.83 	0.058027 	4946 	0.057435
35.87 	0.062767 	4923 	0.060744
35.91 	0.056221 	4927 	0.055032
35.95 	0.058166 	4917 	0.057451
35.99 	0.057704 	4939 	0.056518
36.03 	0.067166 	4943 	0.064638
36.07 	0.057704 	4939 	0.056835
36.11 	0.062082 	4929 	0.061606
36.15 	0.056692 	4939 	0.055012
36.19 	0.052024 	4940 	0.050957
36.23 	0.063830 	4935 	0.063118
36.27 	0.057868 	4925 	0.057135
36.31 	0.057427 	4928 	0.056338
36.35 	0.057821 	4929 	0.056989
36.39 	0.060557 	4921 	0.059485
36.43 	0.054789 	4928 	0.054195
36.47 	0.064222 	4936 	0.062778
36.51 	0.056152 	4933 	0.055302
36.55 	0.057439 	4927 	0.056349
36.59 	0.062968 	4939 	0.062019
36.63 	0.060434 	4931 	0.059246
36.67 	0.057201 	4930 	0.056607
36.71 	0.055883 	4921 	0.055050
36.75 	0.053398 	4944 	0.052569
36.79 	0.063605 	4921 	0.063010
36.83 	0.060631 	4915 	0.059796
36.87 	0.055016 	4944 	0.054187
36.91 	0.053633 	4941 	0.052566
36.95 	0.056558 	4933 	0.055370
36.99 	0.058967 	4935 	0.058373
37.03 	0.057067 	4924 	0.055997
37.07 	0.061398 	4935 	0.060073
37.11 	0.056940 	4935 	0.055872
37.15 	0.055205 	4909 	0.054588
37.19 	0.060711 	4925 	0.059164
37.23 	0.054087 	4918 	0.053372
37.27 	0.052513 	4894 	0.052154
37.31 	0.058156 	4935 	0.057325
37.35 	0.051843 	4938 	0.051131
37.39 	0.056986 	4931 	0.056016
37.43 	0.057583 	4932 	0.057108
37.47 	0.050314 	4929 	0.049364
37.51 	0.054936 	4933 	0.053749
37.55 	0.059432 	4930 	0.059076
37.59 	0.050458 	4915 	0.050100
37.63 	0.061191 	4919 	0.060358
37.67 	0.054241 	4904 	0.053405
37.71 	0.052140 	4929 	0.051190
37.75 	0.053846 	4940 	0.052542
37.79 	0.050304 	4930 	0.049829
37.83 	0.052846 	4920 	0.051516
37.87 	0.055882 	4939 	0.055170
37.91 	0.057201 	4930 	0.055775
37.95 	0.046738 	4921 	0.046262
37.99 	0.054560 	4912 	0.053725
38.03 	0.053982 	4909 	0.053028
38.07 	0.055408 	4909 	0.054573
38.11 	0.054914 	4935 	0.053964
38.15 	0.054697 	4918 	0.053744
38.19 	0.060041 	4930 	0.058734
38.23 	0.055083 	4938 	0.053659
38.27 	0.063489 	4930 	0.062776
38.31 	0.055003 	4927 	0.053814
38.35 	0.060065 	4928 	0.059332
38.39 	0.056020 	4909 	0.055184
38.43 	0.065094 	4916 	0.063187
38.47 	0.060322 	4907 	0.058770
38.51 	0.051298 	4932 	0.050704
38.55 	0.060575 	4936 	0.059982
38.59 	0.051787 	4924 	0.050954
38.63 	0.057880 	4924 	0.056571
38.67 	0.060361 	4937 	0.059886
38.71 	0.054833 	4924 	0.053882
38.75 	0.050538 	4927 	0.049943
38.79 	0.055330 	4934 	0.054855
38.83 	0.057735 	4919 	0.056425
38.87 	0.050295 	4911 	0.049222
38.91 	0.054049 	4903 	0.053212
38.95 	0.051850 	4918 	0.051612
38.99 	0.049625 	4937 	0.048894
39.03 	0.053304 	4934 	0.052235
39.07 	0.055849 	4924 	0.055254
39.11 	0.050700 	4931 	0.049987
39.15 	0.047609 	4915 	0.046656
39.19 	0.052471 	4917 	0.051856
39.23 	0.038579 	4925 	0.038460
39.27 	0.055397 	4910 	0.054681
39.31 	0.052211 	4884 	0.051352
39.35 	0.054509 	4935 	0.053796
39.39 	0.051329 	4929 	0.051210
39.43 	0.056963 	4933 	0.056013
39.47 	0.049360 	4923 	0.048408
39.51 	0.048538 	4924 	0.047804
39.55 	0.042692 	4919 	0.042215
39.59 	0.051710 	4912 	0.051352
39.63 	0.052215 	4922 	0.051500
39.67 	0.047018 	4913 	0.046183
39.71 	0.052094 	4895 	0.051496
39.75 	0.052963 	4928 	0.052249
39.79 	0.041819 	4926 	0.041343
39.83 	0.047629 	4934 	0.047273
39.87 	0.049746 	4925 	0.049270
39.91 	0.050589 	4922 	0.049637
39.95 	0.048627 	4915 	0.047792
39.99 	0.052109 	4932 	0.051752
40.03 	0.046875 	4928 	0.046281
40.07 	0.048345 	4923 	0.047988
40.11 	0.050041 	4916 	0.049326
40.15 	0.046815 	4913 	0.046218
40.19 	0.048489 	4929 	0.047775
40.23 	0.050081 	4932 	0.049250
40.27 	0.045777 	4937 	0.045539
40.31 	0.040899 	4939 	0.040306
40.35 	0.047774 	4919 	0.047059
40.39 	0.049888 	4931 	0.049294
40.43 	0.044088 	4922 	0.043493
40.47 	0.045140 	4918 	0.044426
40.51 	0.043681 	4922 	0.043324
40.55 	0.045232 	4908 	0.044755
40.59 	0.046790 	4937 	0.045603
40.63 	0.043205 	4930 	0.042492
40.67 	0.042579 	4932 	0.042342
40.71 	0.048256 	4932 	0.047662
40.75 	0.048266 	4931 	0.047672
40.79 	0.053615 	4924 	0.052663
40.83 	0.049716 	4928 	0.049597
40.87 	0.046672 	4928 	0.046078
40.91 	0.042657 	4923 	0.042181
40.95 	0.051089 	4913 	0.050612
40.99 	0.042242 	4924 	0.041885
41.03 	0.048114 	4905 	0.047517
41.07 	0.043408 	4930 	0.042814
41.11 	0.050051 	4935 	0.048982
41.15 	0.048978 	4941 	0.048267
41.19 	0.045639 	4930 	0.045144
41.23 	0.046366 	4939 	0.046010
41.27 	0.046441 	4931 	0.045966
41.31 	0.047233 	4933 	0.046758
41.35 	0.044350 	4938 	0.043875
41.39 	0.037705 	4933 	0.037468
41.43 	0.042605 	4929 	0.041892
41.47 	0.049330 	4926 	0.048735
41.51 	0.046964 	4940 	0.046489
41.55 	0.039108 	4935 	0.038871
41.59 	0.046017 	4933 	0.045779
41.63 	0.045160 	4938 	0.044685
41.67 	0.043725 	4940 	0.043132
41.71 	0.042156 	4934 	0.041800
41.75 	0.048489 	4929 	0.048251
41.79 	0.045105 	4944 	0.044868
41.83 	0.043831 	4928 	0.043475
41.87 	0.041743 	4935 	0.041505
41.91 	0.037682 	4936 	0.037326
41.95 	0.041979 	4931 	0.041861
41.99 	0.044648 	4905 	0.043693
42.03 	0.047378 	4939 	0.046054
42.07 	0.044359 	4937 	0.043766
42.11 	0.043074 	4945 	0.042482
42.15 	0.040502 	4938 	0.039909
42.19 	0.033822 	4908 	0.033703
42.23 	0.044358 	4892 	0.044119
42.27 	0.037341 	4874 	0.036961
42.31 	0.037487 	4855 	0.036763
42.35 	0.038239 	4838 	0.037977
42.39 	0.040591 	4804 	0.040103
42.43 	0.043197 	4792 	0.042830
42.47 	0.043861 	4765 	0.043001
42.51 	0.039005 	4743 	0.038634
42.55 	0.044817 	4708 	0.044444
42.59 	0.041446 	4729 	0.040827
42.63 	0.037163 	4709 	0.036665
42.67 	0.040137 	4684 	0.039136
42.71 	0.041175 	4663 	0.041175
42.75 	0.043318 	4617 	0.042811
42.79 	0.039066 	4582 	0.038427
42.83 	0.042769 	4536 	0.042640
42.87 	0.040009 	4499 	0.039228
42.91 	0.039048 	4456 	0.038260
42.95 	0.039402 	4416 	0.038341
42.99 	0.044698 	4385 	0.044030
43.03 	0.046619 	4333 	0.046213
43.07 	0.039804 	4296 	0.039668
43.11 	0.046533 	4255 	0.046258
43.15 	0.043509 	4206 	0.042952
43.19 	0.045780 	4194 	0.044942
43.23 	0.039239 	4154 	0.038675
43.27 	0.043118 	4105 	0.042547
43.31 	0.044128 	4079 	0.043410
43.35 	0.036706 	4032 	0.036416
43.39 	0.044728 	4002 	0.044581
43.43 	0.044697 	3960 	0.044401
43.47 	0.044887 	3921 	0.044438
43.51 	0.039464 	3877 	0.039161
43.55 	0.033063 	2964 	0.033063
43.59 	0.042383 	1746 	0.041376
43.63 	0.041958 	1001 	0.041373
43.67 	0.047809 	502 	0.046642
43.71 	0.004184 	239 	0.004184
43.75 	0.062500 	16 	0.062500