File: Example_Data/25SC_s1_0011.000.dat
#F C:\frames\spec\25SC_s1_0011.000
#C title =s:11 frm:0 25SC_s1
#C wavelength =0.15406

#S 1  fr_average C:\frames\spec\25SC_s1_0011.000 C:\win32app\speccom\mask.axs chi 0 180 0 360 0.02
#C 2 theta =0.000000 to 180 deg
#C   q   =0.000000 to 81.568 nm^-1
#C  chi  =0.000000 to 360 deg
#C collumns:
#C  1 position (2theta or chi in degrees)
#C  2 average intensity (sum of all counts in the region divided with number of pixels)
#C  3 Number of pixels in region)
#C  4 error (sum of sqrt(intensity) for all pixels divided by number)
#N 4
#L TTh  Int  N_pix  Err
32.99 	0.065574 	61 	0.065574
33.03 	0.056075 	1391 	0.056075
33.07 	0.070732 	2050 	0.069589
33.11 	0.055060 	2579 	0.053243
33.15 	0.059687 	2999 	0.059101
33.19 	0.061939 	3342 	0.061238
33.23 	0.056486 	3523 	0.056153
33.27 	0.058953 	3630 	0.058308
33.31 	0.061749 	3660 	0.060788
33.35 	0.058744 	3694 	0.057951
33.39 	0.056047 	3729 	0.055105
33.43 	0.068333 	3761 	0.066308
33.47 	0.064771 	3798 	0.063537
33.51 	0.057667 	3815 	0.057360
33.55 	0.061931 	3843 	0.060381
33.59 	0.065722 	3880 	0.064967
33.63 	0.060219 	3919 	0.059323
33.67 	0.059939 	3954 	0.058902
33.71 	0.057610 	3975 	0.056431
33.75 	0.053263 	3999 	0.051945
33.79 	0.060134 	4041 	0.059095
33.83 	0.060741 	4050 	0.059005
33.87 	0.059353 	4111 	0.058213
33.91 	0.057122 	4149 	0.055993
33.95 	0.054293 	4181 	0.053172
33.99 	0.052857 	4200 	0.052020
34.03 	0.055372 	4244 	0.054958
34.07 	0.058107 	4268 	0.056734
34.11 	0.065551 	4302 	0.064734
34.15 	0.066728 	4331 	0.065646
34.19 	0.056855 	4362 	0.056049
34.23 	0.056909 	4393 	0.056242
34.27 	0.061058 	4422 	0.059999
34.31 	0.052714 	4458 	0.052189
34.35 	0.058653 	4484 	0.057216
34.39 	0.060418 	4502 	0.059225
34.43 	0.065874 	4539 	0.064841
34.47 	0.056402 	4592 	0.055765
34.51 	0.057751 	4606 	0.056606
34.55 	0.058152 	4643 	0.056638
34.59 	0.054118 	4675 	0.053115
34.63 	0.053079 	4710 	0.052457
34.67 	0.060536 	4741 	0.059547
34.71 	0.056232 	4766 	0.055125
34.75 	0.056988 	4808 	0.056745
34.79 	0.056592 	4824 	0.055378
34.83 	0.053682 	4862 	0.052838
34.87 	0.061011 	4868 	0.059928
34.91 	0.057763 	4882 	0.056323
34.95 	0.053579 	4890 	0.052740
34.99 	0.054115 	4897 	0.053277
35.03 	0.053004 	4943 	0.052056
35.07 	0.056275 	4940 	0.055801
35.11 	0.051546 	4947 	0.051191
35.15 	0.052258 	4937 	0.051665
35.19 	0.056657 	4942 	0.055590
35.23 	0.054601 	4945 	0.053061
35.27 	0.058610 	4948 	0.057643
35.31 	0.055747 	4933 	0.055153
35.35 	0.060907 	4942 	0.060195
35.39 	0.058443 	4945 	0.057851
35.43 	0.057369 	4933 	0.057131
35.47 	0.052119 	4931 	0.051169
35.51 	0.064758 	4926 	0.064164
35.55 	0.059454 	4945 	0.058250
35.59 	0.051567 	4945 	0.051093
35.63 	0.056848 	4943 	0.055663
35.67 	0.064751 	4942 	0.063921
35.71 	0.058943 	4937 	0.057499
35.75 	0.053133 	4931 	0.051826
35.79 	0.054136 	4932 	0.052473
35.83 	0.061464 	4946 	0.060279
35.87 	0.059720 	4923 	0.058391
35.91 	0.056424 	4927 	0.055354
35.95 	0.065894 	4917 	0.064206
35.99 	0.064790 	4939 	0.063723
36.03 	0.059276 	4943 	0.058565
36.07 	0.058919 	4939 	0.058207
36.11 	0.055792 	4929 	0.054485
36.15 	0.062158 	4939 	0.060854
36.19 	0.062146 	4940 	0.061316
36.23 	0.056738 	4935 	0.055669
36.27 	0.059898 	4925 	0.059185
36.31 	0.060268 	4928 	0.058109
36.35 	0.060661 	4929 	0.059829
36.39 	0.062182 	4921 	0.061230
36.43 	0.060268 	4928 	0.059555
36.47 	0.065032 	4936 	0.064083
36.51 	0.057166 	4933 	0.055741
36.55 	0.058656 	4927 	0.057567
36.59 	0.058514 	4939 	0.057209
36.63 	0.065098 	4931 	0.064148
36.67 	0.065517 	4930 	0.064448
36.71 	0.058525 	4921 	0.057096
36.75 	0.059668 	4944 	0.058365
36.79 	0.062386 	4921 	0.061314
36.83 	0.060834 	4915 	0.060477
36.87 	0.056028 	4944 	0.054823
36.91 	0.058895 	4941 	0.058184
36.95 	0.065883 	4933 	0.064933
36.99 	0.065653 	4935 	0.064585
37.03 	0.067425 	4924 	0.066216
37.07 	0.057345 	4935 	0.056277
37.11 	0.063222 	4935 	0.061778
37.15 	0.059279 	4909 	0.057370
37.19 	0.059289 	4925 	0.058199
37.23 	0.061204 	4918 	0.060132
37.27 	0.061708 	4894 	0.061229
37.31 	0.058156 	4935 	0.057206
37.35 	0.061563 	4938 	0.060614
37.39 	0.060434 	4931 	0.059721
37.43 	0.065491 	4932 	0.064897
37.47 	0.061676 	4929 	0.060606
37.51 	0.056761 	4933 	0.056167
37.55 	0.059026 	4930 	0.057838
37.59 	0.054934 	4915 	0.053861
37.63 	0.061191 	4919 	0.059762
37.67 	0.060155 	4904 	0.059199
37.71 	0.058227 	4929 	0.057514
37.75 	0.050000 	4940 	0.049051
37.79 	0.053550 	4930 	0.052461
37.83 	0.056911 	4920 	0.056077
37.87 	0.052642 	4939 	0.051792
37.91 	0.059635 	4930 	0.058803
37.95 	0.056696 	4921 	0.054910
37.99 	0.050081 	4912 	0.049485
38.03 	0.058057 	4909 	0.057579
38.07 	0.056223 	4909 	0.055507
38.11 	0.058156 	4935 	0.057563
38.15 	0.056527 	4918 	0.055812
38.19 	0.061055 	4930 	0.060461
38.23 	0.055488 	4938 	0.054658
38.27 	0.055984 	4930 	0.055033
38.31 	0.053176 	4927 	0.052582
38.35 	0.062500 	4928 	0.061192
38.39 	0.059075 	4909 	0.058340
38.43 	0.057364 	4916 	0.055914
38.47 	0.065621 	4907 	0.063830
38.51 	0.066099 	4932 	0.064635
38.55 	0.074149 	4936 	0.073437
38.59 	0.076361 	4924 	0.074695
38.63 	0.076564 	4924 	0.074779
38.67 	0.082034 	4937 	0.080017
38.71 	0.079610 	4924 	0.077945
38.75 	0.081997 	4927 	0.080333
38.79 	0.080259 	4934 	0.077391
38.83 	0.076032 	4919 	0.074484
38.87 	0.074527 	4911 	0.073095
38.91 	0.075668 	4903 	0.073856
38.95 	0.066897 	4918 	0.065825
38.99 	0.056107 	4937 	0.055514
39.03 	0.061005 	4934 	0.059699
39.07 	0.053209 	4924 	0.052475
39.11 	0.053944 	4931 	0.053469
39.15 	0.056968 	4915 	0.056492
39.19 	0.046166 	4917 	0.045432
39.23 	0.046701 	4925 	0.046106
39.27 	0.046436 	4910 	0.045720
39.31 	0.047707 	4884 	0.047467
39.35 	0.050253 	4935 	0.049897
39.39 	0.044228 	4929 	0.043277
39.43 	0.045206 	4933 	0.044493
39.47 	0.049766 	4923 	0.048814
39.51 	0.046101 	4924 	0.044911
39.55 	0.042895 	4919 	0.042299
39.59 	0.044992 	4912 	0.044753
39.63 	0.043275 	4922 	0.042561
39.67 	0.048850 	4913 	0.047896
39.71 	0.047395 	4895 	0.046558
39.75 	0.047890 	4928 	0.047414
39.79 	0.040601 	4926 	0.040006
39.83 	0.049047 	4934 	0.048098
39.87 	0.047919 	4925 	0.047443
39.91 	0.050183 	4922 	0.049112
39.95 	0.044557 	4915 	0.044200
39.99 	0.043796 	4932 	0.043202
40.03 	0.043222 	4928 	0.042271
40.07 	0.048751 	4923 	0.047561
40.11 	0.040073 	4916 	0.039358
40.15 	0.046000 	4913 	0.045523
40.19 	0.047677 	4929 	0.046469
40.23 	0.042782 	4932 	0.042544
40.27 	0.044156 	4937 	0.043682
40.31 	0.043734 	4939 	0.043615
40.35 	0.045334 	4919 	0.044739
40.39 	0.042791 	4931 	0.042078
40.43 	0.047338 	4922 	0.046148
40.47 	0.044937 	4918 	0.044580
40.51 	0.050996 	4922 	0.050281
40.55 	0.045232 	4908 	0.044874
40.59 	0.048410 	4937 	0.047461
40.63 	0.036105 	4930 	0.035274
40.67 	0.043998 	4932 	0.043523
40.71 	0.040146 	4932 	0.039552
40.75 	0.044007 	4931 	0.043413
40.79 	0.039805 	4924 	0.039091
40.83 	0.041396 	4928 	0.041277
40.87 	0.038961 	4928 	0.038486
40.91 	0.042657 	4923 	0.042181
40.95 	0.046204 	4913 	0.045489
40.99 	0.043258 	4924 	0.042663
41.03 	0.041794 	4905 	0.041316
41.07 	0.043408 	4930 	0.042932
41.11 	0.047011 	4935 	0.046418
41.15 	0.040478 	4941 	0.040122
41.19 	0.040568 	4930 	0.040449
41.23 	0.036850 	4939 	0.036494
41.27 	0.043805 	4931 	0.043329
41.31 	0.038719 	4933 	0.038600
41.35 	0.044755 	4938 	0.044280
41.39 	0.044800 	4933 	0.044207
41.43 	0.041996 	4929 	0.041521
41.47 	0.038774 	4926 	0.038298
41.51 	0.041903 	4940 	0.041310
41.55 	0.044377 	4935 	0.043427
41.59 	0.042165 	4933 	0.041334
41.63 	0.043742 	4938 	0.043387
41.67 	0.042105 	4940 	0.041750
41.71 	0.041346 	4934 	0.040990
41.75 	0.044228 	4929 	0.043515
41.79 	0.045712 	4944 	0.045120
41.83 	0.040787 	4928 	0.040431
41.87 	0.040729 	4935 	0.039899
41.91 	0.041734 	4936 	0.041378
41.95 	0.037721 	4931 	0.037127
41.99 	0.043833 	4905 	0.043355
42.03 	0.039887 	4939 	0.039531
42.07 	0.039295 	4937 	0.038801
42.11 	0.040243 	4945 	0.039276
42.15 	0.043945 	4938 	0.043589
42.19 	0.038916 	4908 	0.038916
42.23 	0.036795 	4892 	0.036555
42.27 	0.046163 	4874 	0.045562
42.31 	0.035633 	4855 	0.035151
42.35 	0.035759 	4838 	0.035395
42.39 	0.046003 	4804 	0.045394
42.43 	0.041319 	4792 	0.040585
42.47 	0.037146 	4765 	0.036777
42.51 	0.041324 	4743 	0.040830
42.55 	0.043543 	4708 	0.043170
42.59 	0.037217 	4729 	0.036722
42.63 	0.036526 	4709 	0.036277
42.67 	0.034372 	4684 	0.034247
42.71 	0.037529 	4663 	0.037404
42.75 	0.042235 	4617 	0.041728
42.79 	0.042994 	4582 	0.042866
42.83 	0.042549 	4536 	0.041515
42.87 	0.043343 	4499 	0.042562
42.91 	0.033438 	4456 	0.033175
42.95 	0.037364 	4416 	0.036834
42.99 	0.036944 	4385 	0.036276
43.03 	0.035772 	4333 	0.035502
43.07 	0.041899 	4296 	0.041627
43.11 	0.041833 	4255 	0.041558
43.15 	0.038279 	4206 	0.037861
43.19 	0.041249 	4194 	0.040970
43.23 	0.035388 	4154 	0.034824
43.27 	0.037759 	4105 	0.037616
43.31 	0.034812 	4079 	0.034238
43.35 	0.038690 	4032 	0.037964
43.39 	0.045977 	4002 	0.045392
43.43 	0.038131 	3960 	0.037540
43.47 	0.029839 	3921 	0.029367
43.51 	0.037142 	3877 	0.036387
43.55 	0.037112 	2964 	0.036519
43.59 	0.040664 	1746 	0.039993
43.63 	0.036963 	1001 	0.036963
43.67 	0.037849 	502 	0.037849
43.71 	0.016736 	239 	0.016736
43.75 	0.000000 	16 	0.000000