File: Example_Data/25SC_s1_0032.003.dat
#F C:\frames\spec\25SC_s1_0032.003
#C title =s:32 frm:3 25SC_s1
#C wavelength =0.15406

#S 1  fr_average C:\frames\spec\25SC_s1_0032.003 C:\win32app\speccom\mask.axs chi 0 180 0 360 0.02
#C 2 theta =0.000000 to 180 deg
#C   q   =0.000000 to 81.568 nm^-1
#C  chi  =0.000000 to 360 deg
#C collumns:
#C  1 position (2theta or chi in degrees)
#C  2 average intensity (sum of all counts in the region divided with number of pixels)
#C  3 Number of pixels in region)
#C  4 error (sum of sqrt(intensity) for all pixels divided by number)
#N 4
#L TTh  Int  N_pix  Err
32.99 	0.065574 	61 	0.065574
33.03 	0.063983 	1391 	0.063562
33.07 	0.054634 	2050 	0.054063
33.11 	0.055060 	2579 	0.053924
33.15 	0.056686 	2999 	0.055514
33.19 	0.063136 	3342 	0.061909
33.23 	0.063298 	3523 	0.062134
33.27 	0.056474 	3630 	0.055183
33.31 	0.059563 	3660 	0.058763
33.35 	0.063075 	3694 	0.061648
33.39 	0.059265 	3729 	0.058323
33.43 	0.053975 	3761 	0.053040
33.47 	0.056872 	3798 	0.056255
33.51 	0.055308 	3815 	0.054694
33.55 	0.061410 	3843 	0.060496
33.59 	0.062887 	3880 	0.062585
33.63 	0.059709 	3919 	0.058513
33.67 	0.061710 	3954 	0.060821
33.71 	0.063145 	3975 	0.062260
33.75 	0.060515 	3999 	0.059026
33.79 	0.059391 	4041 	0.057942
33.83 	0.059753 	4050 	0.058596
33.87 	0.057893 	4111 	0.057466
33.91 	0.063630 	4149 	0.062500
33.95 	0.062186 	4181 	0.060925
33.99 	0.056190 	4200 	0.054935
34.03 	0.060320 	4244 	0.059216
34.07 	0.053421 	4268 	0.052460
34.11 	0.059507 	4302 	0.058146
34.15 	0.055184 	4331 	0.054372
34.19 	0.058001 	4362 	0.057061
34.23 	0.066697 	4393 	0.065897
34.27 	0.066033 	4422 	0.064576
34.31 	0.060341 	4458 	0.059553
34.35 	0.060883 	4484 	0.060099
34.39 	0.051088 	4502 	0.050438
34.43 	0.051333 	4539 	0.050171
34.47 	0.059451 	4592 	0.058431
34.51 	0.055580 	4606 	0.054562
34.55 	0.051475 	4643 	0.050845
34.59 	0.055615 	4675 	0.054988
34.63 	0.055839 	4710 	0.055217
34.67 	0.060747 	4741 	0.060376
34.71 	0.059169 	4766 	0.058432
34.75 	0.057196 	4808 	0.055978
34.79 	0.050580 	4824 	0.049488
34.83 	0.058618 	4862 	0.057293
34.87 	0.057108 	4868 	0.056226
34.91 	0.061041 	4882 	0.060201
34.95 	0.058282 	4890 	0.057444
34.99 	0.058607 	4897 	0.057291
35.03 	0.056646 	4943 	0.055342
35.07 	0.055061 	4940 	0.054349
35.11 	0.059834 	4947 	0.058887
35.15 	0.058538 	4937 	0.058182
35.19 	0.063739 	4942 	0.062436
35.23 	0.056218 	4945 	0.054896
35.27 	0.055174 	4948 	0.054700
35.31 	0.058788 	4933 	0.058194
35.35 	0.055848 	4942 	0.054544
35.39 	0.053387 	4945 	0.052795
35.43 	0.057977 	4933 	0.057264
35.47 	0.050902 	4931 	0.050427
35.51 	0.057856 	4926 	0.056429
35.55 	0.055612 	4945 	0.054901
35.59 	0.061476 	4945 	0.060055
35.63 	0.061097 	4943 	0.060741
35.67 	0.056657 	4942 	0.055709
35.71 	0.057525 	4937 	0.057169
35.75 	0.054147 	4931 	0.053316
35.79 	0.065491 	4932 	0.064422
35.83 	0.052366 	4946 	0.051418
35.87 	0.051595 	4923 	0.051238
35.91 	0.057033 	4927 	0.056438
35.95 	0.046776 	4917 	0.046300
35.99 	0.059729 	4939 	0.059136
36.03 	0.057253 	4943 	0.056167
36.07 	0.055679 	4939 	0.054730
36.11 	0.057010 	4929 	0.055940
36.15 	0.055274 	4939 	0.054088
36.19 	0.059919 	4940 	0.059089
36.23 	0.054711 	4935 	0.054118
36.27 	0.059289 	4925 	0.057605
36.31 	0.057630 	4928 	0.057154
36.35 	0.054169 	4929 	0.053337
36.39 	0.051006 	4921 	0.050292
36.43 	0.057224 	4928 	0.056511
36.47 	0.055308 	4936 	0.054695
36.51 	0.053923 	4933 	0.053072
36.55 	0.054597 	4927 	0.054122
36.59 	0.052237 	4939 	0.051032
36.63 	0.055567 	4931 	0.055210
36.67 	0.046856 	4930 	0.046737
36.71 	0.049583 	4921 	0.049226
36.75 	0.055016 	4944 	0.054424
36.79 	0.053241 	4921 	0.052765
36.83 	0.054934 	4915 	0.054100
36.87 	0.045914 	4944 	0.045322
36.91 	0.051407 	4941 	0.050932
36.95 	0.054328 	4933 	0.053002
36.99 	0.050456 	4935 	0.049506
37.03 	0.053209 	4924 	0.052733
37.07 	0.053495 	4935 	0.052902
37.11 	0.051064 	4935 	0.050352
37.15 	0.054390 	4909 	0.053913
37.19 	0.052792 	4925 	0.051602
37.23 	0.051240 	4918 	0.050764
37.27 	0.046179 	4894 	0.045581
37.31 	0.049240 	4935 	0.048647
37.35 	0.047185 	4938 	0.046829
37.39 	0.052930 	4931 	0.052099
37.43 	0.051500 	4932 	0.051025
37.47 	0.053763 	4929 	0.053150
37.51 	0.045408 	4933 	0.045052
37.55 	0.054158 	4930 	0.053445
37.59 	0.052492 	4915 	0.051896
37.63 	0.049604 	4919 	0.049484
37.67 	0.053834 	4904 	0.053117
37.71 	0.052343 	4929 	0.051749
37.75 	0.053441 	4940 	0.052848
37.79 	0.049290 	4930 	0.048696
37.83 	0.048171 	4920 	0.047456
37.87 	0.052035 	4939 	0.051442
37.91 	0.052333 	4930 	0.051382
37.95 	0.052835 	4921 	0.052359
37.99 	0.050081 	4912 	0.049485
38.03 	0.059075 	4909 	0.058359
38.07 	0.051334 	4909 	0.050022
38.11 	0.052888 	4935 	0.051701
38.15 	0.051240 	4918 	0.050407
38.19 	0.051318 	4930 	0.050249
38.23 	0.058121 	4938 	0.057290
38.27 	0.049087 	4930 	0.047899
38.31 	0.057033 	4927 	0.055963
38.35 	0.059050 	4928 	0.057981
38.39 	0.058464 	4909 	0.057629
38.43 	0.055533 	4916 	0.054580
38.47 	0.050132 	4907 	0.049536
38.51 	0.059813 	4932 	0.058982
38.55 	0.053282 	4936 	0.052194
38.59 	0.050975 	4924 	0.050618
38.63 	0.057474 	4924 	0.056641
38.67 	0.056512 	4937 	0.055444
38.71 	0.054630 	4924 	0.053203
38.75 	0.050538 	4927 	0.049943
38.79 	0.048237 	4934 	0.047643
38.83 	0.044725 	4919 	0.044367
38.87 	0.050295 	4911 	0.049580
38.91 	0.050377 	4903 	0.049422
38.95 	0.047784 	4918 	0.047307
38.99 	0.043751 	4937 	0.043277
39.03 	0.049655 	4934 	0.048943
39.07 	0.047929 	4924 	0.047453
39.11 	0.049077 	4931 	0.048246
39.15 	0.051679 	4915 	0.050725
39.19 	0.048810 	4917 	0.048095
39.23 	0.047513 	4925 	0.046680
39.27 	0.046436 	4910 	0.046317
39.31 	0.052007 	4884 	0.051167
39.35 	0.049645 	4935 	0.049171
39.39 	0.046460 	4929 	0.045747
39.43 	0.041962 	4933 	0.041131
39.47 	0.045704 	4923 	0.045466
39.51 	0.049350 	4924 	0.048874
39.55 	0.049807 	4919 	0.048973
39.59 	0.044992 	4912 	0.044257
39.63 	0.046119 	4922 	0.045643
39.67 	0.047832 	4913 	0.047236
39.71 	0.047600 	4895 	0.046642
39.75 	0.047687 	4928 	0.046973
39.79 	0.049330 	4926 	0.048735
39.83 	0.046413 	4934 	0.045582
39.87 	0.046701 	4925 	0.045868
39.91 	0.054043 	4922 	0.053686
39.95 	0.046592 	4915 	0.045877
39.99 	0.048459 	4932 	0.047746
40.03 	0.047281 	4928 	0.046211
40.07 	0.049360 	4923 	0.048408
40.11 	0.041090 	4916 	0.040852
40.15 	0.046000 	4913 	0.045285
40.19 	0.044025 	4929 	0.043074
40.23 	0.045215 	4932 	0.044621
40.27 	0.045169 	4937 	0.045050
40.31 	0.044341 	4939 	0.043867
40.35 	0.050010 	4919 	0.049653
40.39 	0.040560 	4931 	0.040203
40.43 	0.045713 	4922 	0.044880
40.47 	0.048190 	4918 	0.047952
40.51 	0.041853 	4922 	0.041615
40.55 	0.043195 	4908 	0.042598
40.59 	0.044967 	4937 	0.044373
40.63 	0.048073 	4930 	0.047479
40.67 	0.040146 	4932 	0.039552
40.71 	0.047445 	4932 	0.046614
40.75 	0.043805 	4931 	0.043092
40.79 	0.051990 	4924 	0.051514
40.83 	0.052354 	4928 	0.051997
40.87 	0.041802 	4928 	0.041445
40.91 	0.043063 	4923 	0.042349
40.95 	0.052107 	4913 	0.051272
40.99 	0.054224 	4924 	0.053510
41.03 	0.046075 	4905 	0.045339
41.07 	0.044828 	4930 	0.044352
41.11 	0.043364 	4935 	0.042770
41.15 	0.044728 	4941 	0.044609
41.19 	0.040568 	4930 	0.040093
41.23 	0.042924 	4939 	0.042331
41.27 	0.046846 	4931 	0.046134
41.31 	0.044598 	4933 	0.044123
41.35 	0.042325 	4938 	0.042206
41.39 	0.040949 	4933 	0.040474
41.43 	0.041185 	4929 	0.040234
41.47 	0.041210 	4926 	0.040734
41.51 	0.042915 	4940 	0.042678
41.55 	0.044782 	4935 	0.044545
41.59 	0.042773 	4933 	0.041942
41.63 	0.043337 	4938 	0.043100
41.67 	0.042308 	4940 	0.042189
41.71 	0.044386 	4934 	0.043555
41.75 	0.045851 	4929 	0.044900
41.79 	0.041869 	4944 	0.041158
41.83 	0.045049 	4928 	0.044573
41.87 	0.040729 	4935 	0.040492
41.91 	0.048420 	4936 	0.047945
41.95 	0.043805 	4931 	0.043329
41.99 	0.043629 	4905 	0.043271
42.03 	0.041911 	4939 	0.041674
42.07 	0.042536 	4937 	0.042180
42.11 	0.038220 	4945 	0.037628
42.15 	0.043135 	4938 	0.042186
42.19 	0.043399 	4908 	0.043040
42.23 	0.040679 	4892 	0.040080
42.27 	0.042060 	4874 	0.041459
42.31 	0.045932 	4855 	0.045188
42.35 	0.042166 	4838 	0.041682
42.39 	0.041007 	4804 	0.040520
42.43 	0.042362 	4792 	0.041873
42.47 	0.043442 	4765 	0.043073
42.51 	0.042378 	4743 	0.041740
42.55 	0.040782 	4708 	0.040408
42.59 	0.040601 	4729 	0.040601
42.63 	0.041198 	4709 	0.040576
42.67 	0.044833 	4684 	0.044333
42.71 	0.043105 	4663 	0.042603
42.75 	0.039853 	4617 	0.039853
42.79 	0.038193 	4582 	0.037809
42.83 	0.043430 	4536 	0.043043
42.87 	0.040898 	4499 	0.040768
42.91 	0.042864 	4456 	0.042338
42.95 	0.038723 	4416 	0.038590
42.99 	0.043101 	4385 	0.042567
43.03 	0.039003 	4333 	0.038733
43.07 	0.040037 	4296 	0.039765
43.11 	0.040423 	4255 	0.040010
43.15 	0.036614 	4206 	0.036057
43.19 	0.044826 	4194 	0.044407
43.23 	0.042128 	4154 	0.041423
43.27 	0.044336 	4105 	0.043480
43.31 	0.043148 	4079 	0.042717
43.35 	0.043651 	4032 	0.043215
43.39 	0.041729 	4002 	0.041290
43.43 	0.039899 	3960 	0.039751
43.47 	0.042081 	3921 	0.041484
43.51 	0.040495 	3877 	0.040193
43.55 	0.041498 	2964 	0.040905
43.59 	0.042955 	1746 	0.042955
43.63 	0.046953 	1001 	0.045197
43.67 	0.033865 	502 	0.033865
43.71 	0.054393 	239 	0.054393
43.75 	0.000000 	16 	0.000000