File: Example_Data/25SC_s1_0043.000.dat
#F C:\frames\spec\25SC_s1_0043.000
#C title =s:43 frm:0 25SC_s1
#C wavelength =0.15406

#S 1  fr_average C:\frames\spec\25SC_s1_0043.000 C:\win32app\speccom\mask.axs chi 0 180 0 360 0.02
#C 2 theta =0.000000 to 180 deg
#C   q   =0.000000 to 81.568 nm^-1
#C  chi  =0.000000 to 360 deg
#C collumns:
#C  1 position (2theta or chi in degrees)
#C  2 average intensity (sum of all counts in the region divided with number of pixels)
#C  3 Number of pixels in region)
#C  4 error (sum of sqrt(intensity) for all pixels divided by number)
#N 4
#L TTh  Int  N_pix  Err
32.99 	0.065574 	61 	0.065574
33.03 	0.063983 	1391 	0.061877
33.07 	0.059512 	2050 	0.058941
33.11 	0.064754 	2579 	0.063164
33.15 	0.061020 	2999 	0.060434
33.19 	0.056553 	3342 	0.055297
33.23 	0.059892 	3523 	0.058396
33.27 	0.070799 	3630 	0.069831
33.31 	0.056831 	3660 	0.056030
33.35 	0.056037 	3694 	0.054927
33.39 	0.066238 	3729 	0.064798
33.43 	0.065940 	3761 	0.064538
33.47 	0.057925 	3798 	0.056846
33.51 	0.060288 	3815 	0.058906
33.55 	0.061671 	3843 	0.060578
33.59 	0.051289 	3880 	0.050685
33.63 	0.059199 	3919 	0.057854
33.67 	0.067527 	3954 	0.066193
33.71 	0.063396 	3975 	0.062512
33.75 	0.059015 	3999 	0.057403
33.79 	0.059886 	4041 	0.059306
33.83 	0.060000 	4050 	0.058819
33.87 	0.061299 	4111 	0.060444
33.91 	0.060738 	4149 	0.059326
33.95 	0.061229 	4181 	0.059968
33.99 	0.060238 	4200 	0.059099
34.03 	0.054430 	4244 	0.053188
34.07 	0.061387 	4268 	0.060564
34.11 	0.061134 	4302 	0.060317
34.15 	0.057954 	4331 	0.057008
34.19 	0.060293 	4362 	0.059085
34.23 	0.059413 	4393 	0.059146
34.27 	0.054726 	4422 	0.054064
34.31 	0.057201 	4458 	0.056149
34.35 	0.053970 	4484 	0.053055
34.39 	0.057086 	4502 	0.056284
34.43 	0.055739 	4539 	0.055202
34.47 	0.062718 	4592 	0.061697
34.51 	0.056665 	4606 	0.055627
34.55 	0.059660 	4643 	0.058903
34.59 	0.060535 	4675 	0.059031
34.63 	0.058599 	4710 	0.057106
34.67 	0.051888 	4741 	0.050652
34.71 	0.055812 	4766 	0.054952
34.75 	0.057196 	4808 	0.056343
34.79 	0.063226 	4824 	0.062011
34.83 	0.050391 	4862 	0.049668
34.87 	0.056286 	4868 	0.055684
34.91 	0.054691 	4882 	0.053971
34.95 	0.054192 	4890 	0.053234
34.99 	0.052073 	4897 	0.051355
35.03 	0.058062 	4943 	0.057351
35.07 	0.063158 	4940 	0.062328
35.11 	0.062058 	4947 	0.060874
35.15 	0.054487 	4937 	0.054131
35.19 	0.060097 	4942 	0.058793
35.23 	0.057634 	4945 	0.056212
35.27 	0.060226 	4948 	0.058905
35.31 	0.057369 	4933 	0.056181
35.35 	0.057871 	4942 	0.056330
35.39 	0.054398 	4945 	0.053806
35.43 	0.062639 	4933 	0.061689
35.47 	0.056986 	4931 	0.056392
35.51 	0.055217 	4926 	0.054860
35.55 	0.060263 	4945 	0.059434
35.59 	0.061072 	4945 	0.059887
35.63 	0.059883 	4943 	0.058579
35.67 	0.052813 	4942 	0.052101
35.71 	0.058335 	4937 	0.057267
35.75 	0.064693 	4931 	0.063148
35.79 	0.054542 	4932 	0.054067
35.83 	0.056207 	4946 	0.055260
35.87 	0.056063 	4923 	0.055230
35.91 	0.061092 	4927 	0.059665
35.95 	0.054505 	4917 	0.053552
35.99 	0.050820 	4939 	0.050207
36.03 	0.060490 	4943 	0.059404
36.07 	0.054262 	4939 	0.053432
36.11 	0.057010 	4929 	0.056653
36.15 	0.057704 	4939 	0.056399
36.19 	0.060526 	4940 	0.058629
36.23 	0.053698 	4935 	0.052748
36.27 	0.057056 	4925 	0.056342
36.31 	0.057630 	4928 	0.057036
36.35 	0.059241 	4929 	0.058033
36.39 	0.058728 	4921 	0.058014
36.43 	0.057630 	4928 	0.056798
36.47 	0.056118 	4936 	0.055762
36.51 	0.057369 	4933 	0.056063
36.55 	0.058250 	4927 	0.057418
36.59 	0.060539 	4939 	0.059708
36.63 	0.056581 	4931 	0.055393
36.67 	0.054767 	4930 	0.053579
36.71 	0.061776 	4921 	0.060566
36.75 	0.064320 	4944 	0.063017
36.79 	0.060150 	4921 	0.059079
36.83 	0.064293 	4915 	0.063082
36.87 	0.056230 	4944 	0.054788
36.91 	0.054645 	4941 	0.054052
36.95 	0.052504 	4933 	0.051772
36.99 	0.058561 	4935 	0.057374
37.03 	0.059911 	4924 	0.058364
37.07 	0.057751 	4935 	0.056782
37.11 	0.056130 	4935 	0.055655
37.15 	0.061112 	4909 	0.060516
37.19 	0.055431 	4925 	0.053866
37.23 	0.057747 	4918 	0.056675
37.27 	0.058235 	4894 	0.057038
37.31 	0.057953 	4935 	0.057360
37.35 	0.051438 	4938 	0.050845
37.39 	0.049483 	4931 	0.048414
37.43 	0.058597 	4932 	0.057172
37.47 	0.063907 	4929 	0.063313
37.51 	0.057774 	4933 	0.056349
37.55 	0.062880 	4930 	0.062049
37.59 	0.056765 	4915 	0.055792
37.63 	0.052856 	4919 	0.051904
37.67 	0.053222 	4904 	0.052386
37.71 	0.057010 	4929 	0.055307
37.75 	0.061741 	4940 	0.060792
37.79 	0.054158 	4930 	0.053445
37.83 	0.061992 	4920 	0.060424
37.87 	0.056287 	4939 	0.054982
37.91 	0.054361 	4930 	0.053886
37.95 	0.057712 	4921 	0.057236
37.99 	0.055578 	4912 	0.054485
38.03 	0.057446 	4909 	0.056849
38.07 	0.066001 	4909 	0.064808
38.11 	0.059169 	4935 	0.058220
38.15 	0.057747 	4918 	0.057032
38.19 	0.060446 	4930 	0.059377
38.23 	0.068246 	4938 	0.066941
38.27 	0.062069 	4930 	0.060524
38.31 	0.070225 	4927 	0.068561
38.35 	0.077313 	4928 	0.075630
38.39 	0.072520 	4909 	0.071685
38.43 	0.088080 	4916 	0.086154
38.47 	0.083147 	4907 	0.081714
38.51 	0.079886 	4932 	0.077392
38.55 	0.080835 	4936 	0.078659
38.59 	0.076564 	4924 	0.074660
38.63 	0.072502 	4924 	0.071055
38.67 	0.077375 	4937 	0.075832
38.71 	0.064988 	4924 	0.063679
38.75 	0.063528 	4927 	0.062576
38.79 	0.055128 	4934 	0.054534
38.83 	0.054483 	4919 	0.052696
38.87 	0.056811 	4911 	0.056573
38.91 	0.052417 	4903 	0.051342
38.95 	0.048394 	4918 	0.047322
38.99 	0.050030 	4937 	0.049299
39.03 	0.052898 	4934 	0.051830
39.07 	0.049959 	4924 	0.049602
39.11 	0.046846 	4931 	0.046134
39.15 	0.049847 	4915 	0.049490
39.19 	0.044539 	4917 	0.044301
39.23 	0.049340 	4925 	0.048626
39.27 	0.049084 	4910 	0.048845
39.31 	0.049345 	4884 	0.048865
39.35 	0.045187 	4935 	0.044594
39.39 	0.049503 	4929 	0.049028
39.43 	0.043584 	4933 	0.042733
39.47 	0.045298 	4923 	0.044703
39.51 	0.043461 	4924 	0.042747
39.55 	0.045334 	4919 	0.044481
39.59 	0.045806 	4912 	0.045091
39.63 	0.044494 	4922 	0.044018
39.67 	0.048036 	4913 	0.047440
39.71 	0.040245 	4895 	0.039527
39.75 	0.047687 	4928 	0.047092
39.79 	0.050142 	4926 	0.049310
39.83 	0.044386 	4934 	0.043674
39.87 	0.042640 	4925 	0.042164
39.91 	0.047948 	4922 	0.047353
39.95 	0.043744 	4915 	0.043386
39.99 	0.045620 	4932 	0.044908
40.03 	0.038758 	4928 	0.038520
40.07 	0.045094 	4923 	0.044381
40.11 	0.037022 	4916 	0.036545
40.15 	0.042337 	4913 	0.042217
40.19 	0.046257 	4929 	0.045306
40.23 	0.044404 	4932 	0.044048
40.27 	0.039093 	4937 	0.038618
40.31 	0.040696 	4939 	0.040341
40.35 	0.043708 	4919 	0.043351
40.39 	0.040154 	4931 	0.039798
40.43 	0.041650 	4922 	0.041531
40.47 	0.046564 	4918 	0.046325
40.51 	0.047135 	4922 	0.046302
40.55 	0.039935 	4908 	0.039219
40.59 	0.043549 	4937 	0.042837
40.63 	0.039351 	4930 	0.038876
40.67 	0.036496 	4932 	0.036378
40.71 	0.041565 	4932 	0.041090
40.75 	0.041777 	4931 	0.041539
40.79 	0.041836 	4924 	0.041122
40.83 	0.036526 	4928 	0.035932
40.87 	0.039570 	4928 	0.039451
40.91 	0.044282 	4923 	0.043806
40.95 	0.043558 	4913 	0.042823
40.99 	0.038790 	4924 	0.038076
41.03 	0.044037 	4905 	0.042923
41.07 	0.039757 	4930 	0.039519
41.11 	0.043566 	4935 	0.042498
41.15 	0.041085 	4941 	0.040848
41.19 	0.044219 	4930 	0.043387
41.23 	0.044543 	4939 	0.044069
41.27 	0.040965 	4931 	0.040728
41.31 	0.042976 	4933 	0.042363
41.35 	0.037060 	4938 	0.036704
41.39 	0.042976 	4933 	0.042382
41.43 	0.041388 	4929 	0.040912
41.47 	0.042022 	4926 	0.041784
41.51 	0.037045 	4940 	0.036570
41.55 	0.042756 	4935 	0.041925
41.59 	0.045003 	4933 	0.044291
41.63 	0.035439 	4938 	0.035202
41.67 	0.037247 	4940 	0.036891
41.71 	0.040130 	4934 	0.039892
41.75 	0.037939 	4929 	0.037582
41.79 	0.037217 	4944 	0.037098
41.83 	0.038758 	4928 	0.038164
41.87 	0.040324 	4935 	0.039849
41.91 	0.038290 	4936 	0.037934
41.95 	0.043196 	4931 	0.043077
41.99 	0.041998 	4905 	0.041640
42.03 	0.040696 	4939 	0.040222
42.07 	0.034231 	4937 	0.033875
42.11 	0.035996 	4945 	0.035759
42.15 	0.038072 	4938 	0.037598
42.19 	0.040342 	4908 	0.039387
42.23 	0.041905 	4892 	0.041426
42.27 	0.045753 	4874 	0.044671
42.31 	0.037487 	4855 	0.036884
42.35 	0.040926 	4838 	0.040563
42.39 	0.034555 	4804 	0.034189
42.43 	0.035267 	4792 	0.034900
42.47 	0.035257 	4765 	0.034888
42.51 	0.039427 	4743 	0.038933
42.55 	0.034834 	4708 	0.034585
42.59 	0.046310 	4729 	0.045938
42.63 	0.037588 	4709 	0.037339
42.67 	0.033518 	4684 	0.033268
42.71 	0.037529 	4663 	0.036755
42.75 	0.035737 	4617 	0.034849
42.79 	0.038193 	4582 	0.037554
42.83 	0.037257 	4536 	0.037257
42.87 	0.039342 	4499 	0.038670
42.91 	0.037478 	4456 	0.037083
42.95 	0.033967 	4416 	0.033569
42.99 	0.043786 	4385 	0.043518
43.03 	0.033464 	4333 	0.032923
43.07 	0.040503 	4296 	0.040503
43.11 	0.039953 	4255 	0.039127
43.15 	0.037565 	4206 	0.036869
43.19 	0.036958 	4194 	0.036399
43.23 	0.039239 	4154 	0.038816
43.27 	0.041413 	4105 	0.039986
43.31 	0.036283 	4079 	0.035996
43.35 	0.034970 	4032 	0.034825
43.39 	0.042479 	4002 	0.042186
43.43 	0.040152 	3960 	0.039856
43.47 	0.037235 	3921 	0.036937
43.51 	0.031468 	3877 	0.031165
43.55 	0.039474 	2964 	0.039078
43.59 	0.036082 	1746 	0.036082
43.63 	0.044955 	1001 	0.044955
43.67 	0.033865 	502 	0.032698
43.71 	0.033473 	239 	0.033473
43.75 	0.187500 	16 	0.187500