File: Example_Data/25SC_s1_0022.003.dat
#F C:\frames\spec\25SC_s1_0022.003
#C title =s:22 frm:3 25SC_s1
#C wavelength =0.15406

#S 1  fr_average C:\frames\spec\25SC_s1_0022.003 C:\win32app\speccom\mask.axs chi 0 180 0 360 0.02
#C 2 theta =0.000000 to 180 deg
#C   q   =0.000000 to 81.568 nm^-1
#C  chi  =0.000000 to 360 deg
#C collumns:
#C  1 position (2theta or chi in degrees)
#C  2 average intensity (sum of all counts in the region divided with number of pixels)
#C  3 Number of pixels in region)
#C  4 error (sum of sqrt(intensity) for all pixels divided by number)
#N 4
#L TTh  Int  N_pix  Err
32.99 	0.081967 	61 	0.081967
33.03 	0.063264 	1391 	0.062000
33.07 	0.056098 	2050 	0.054383
33.11 	0.062040 	2579 	0.060450
33.15 	0.055685 	2999 	0.054513
33.19 	0.057451 	3342 	0.056224
33.23 	0.057054 	3523 	0.056389
33.27 	0.066942 	3630 	0.065813
33.31 	0.062022 	3660 	0.061382
33.35 	0.052788 	3694 	0.052313
33.39 	0.065433 	3729 	0.063705
33.43 	0.051582 	3761 	0.051115
33.47 	0.060032 	3798 	0.059260
33.51 	0.055308 	3815 	0.053773
33.55 	0.060370 	3843 	0.059302
33.59 	0.065206 	3880 	0.063672
33.63 	0.059709 	3919 	0.058663
33.67 	0.060445 	3954 	0.059556
33.71 	0.062138 	3975 	0.060665
33.75 	0.054764 	3999 	0.054178
33.79 	0.063351 	4041 	0.061732
33.83 	0.059753 	4050 	0.058861
33.87 	0.062758 	4111 	0.061903
33.91 	0.058809 	4149 	0.057539
33.95 	0.063143 	4181 	0.062442
33.99 	0.061667 	4200 	0.060969
34.03 	0.067154 	4244 	0.066463
34.07 	0.056467 	4268 	0.054957
34.11 	0.055556 	4302 	0.054739
34.15 	0.059340 	4331 	0.058258
34.19 	0.055479 	4362 	0.055211
34.23 	0.060323 	4393 	0.059123
34.27 	0.063772 	4422 	0.062447
34.31 	0.061463 	4458 	0.060149
34.35 	0.054862 	4484 	0.054078
34.39 	0.057530 	4502 	0.056338
34.43 	0.057502 	4539 	0.056448
34.47 	0.056402 	4592 	0.055361
34.51 	0.057534 	4606 	0.057406
34.55 	0.060521 	4643 	0.060017
34.59 	0.056684 	4675 	0.055933
34.63 	0.060934 	4710 	0.060043
34.67 	0.056106 	4741 	0.055365
34.71 	0.056022 	4766 	0.054916
34.75 	0.054908 	4808 	0.054421
34.79 	0.057214 	4824 	0.056364
34.83 	0.054710 	4862 	0.054349
34.87 	0.060805 	4868 	0.060204
34.91 	0.056944 	4882 	0.055844
34.95 	0.059714 	4890 	0.059235
34.99 	0.057382 	4897 	0.056764
35.03 	0.057860 	4943 	0.056675
35.07 	0.057490 	4940 	0.056423
35.11 	0.066909 	4947 	0.065251
35.15 	0.057322 	4937 	0.056610
35.19 	0.057264 	4942 	0.055842
35.23 	0.060667 	4945 	0.059246
35.27 	0.063864 	4948 	0.062799
35.31 	0.061018 	4933 	0.059711
35.35 	0.057871 	4942 	0.056923
35.39 	0.056825 	4945 	0.056233
35.43 	0.058990 	4933 	0.058397
35.47 	0.051916 	4931 	0.051560
35.51 	0.057247 	4926 	0.055820
35.55 	0.057230 	4945 	0.056400
35.59 	0.059050 	4945 	0.057845
35.63 	0.056241 	4943 	0.055649
35.67 	0.055848 	4942 	0.055255
35.71 	0.065829 	4937 	0.064880
35.75 	0.060637 	4931 	0.059449
35.79 	0.057989 	4932 	0.056801
35.83 	0.057420 	4946 	0.056354
35.87 	0.058095 	4923 	0.057024
35.91 	0.061904 	4927 	0.060358
35.95 	0.057962 	4917 	0.056533
35.99 	0.057704 	4939 	0.057230
36.03 	0.054420 	4943 	0.053315
36.07 	0.059121 	4939 	0.058054
36.11 	0.048286 	4929 	0.047573
36.15 	0.056489 	4939 	0.055422
36.19 	0.057895 	4940 	0.057539
36.23 	0.054103 	4935 	0.053272
36.27 	0.056244 	4925 	0.055411
36.31 	0.060471 	4928 	0.060114
36.35 	0.058633 	4929 	0.057662
36.39 	0.059338 	4921 	0.057889
36.43 	0.054180 	4928 	0.053824
36.47 	0.058752 	4936 	0.057447
36.51 	0.065275 	4933 	0.064206
36.55 	0.055206 	4927 	0.054730
36.59 	0.052237 	4939 	0.051526
36.63 	0.054147 	4931 	0.053415
36.67 	0.057404 	4930 	0.056453
36.71 	0.052835 	4921 	0.051982
36.75 	0.061084 	4944 	0.060373
36.79 	0.055273 	4921 	0.054321
36.83 	0.056155 	4915 	0.055559
36.87 	0.057646 	4944 	0.056698
36.91 	0.055859 	4941 	0.054279
36.95 	0.061423 	4933 	0.060473
36.99 	0.054914 	4935 	0.053846
37.03 	0.048944 	4924 	0.047992
37.07 	0.058561 	4935 	0.057849
37.11 	0.054509 	4935 	0.054390
37.15 	0.057242 	4909 	0.056884
37.19 	0.058071 	4925 	0.056763
37.23 	0.052867 	4918 	0.052391
37.27 	0.054352 	4894 	0.052657
37.31 	0.055724 	4935 	0.054498
37.35 	0.056501 	4938 	0.055077
37.39 	0.052930 	4931 	0.052336
37.43 	0.052920 	4932 	0.052188
37.47 	0.054372 	4929 	0.053382
37.51 	0.056355 	4933 	0.056118
37.55 	0.050913 	4930 	0.050319
37.59 	0.049440 	4915 	0.048487
37.63 	0.058142 	4919 	0.057070
37.67 	0.049347 	4904 	0.048511
37.71 	0.047677 	4929 	0.046964
37.75 	0.051417 	4940 	0.051061
37.79 	0.047262 	4930 	0.046668
37.83 	0.053049 	4920 	0.052096
37.87 	0.055274 	4939 	0.054444
37.91 	0.051724 	4930 	0.050892
37.95 	0.052428 	4921 	0.050742
37.99 	0.051710 	4912 	0.050995
38.03 	0.054797 	4909 	0.053843
38.07 	0.053371 	4909 	0.052655
38.11 	0.053901 	4935 	0.052951
38.15 	0.049004 	4918 	0.048885
38.19 	0.053753 	4930 	0.053020
38.23 	0.049008 	4938 	0.048770
38.27 	0.053753 	4930 	0.053040
38.31 	0.051756 	4927 	0.050923
38.35 	0.062094 	4928 	0.060787
38.39 	0.056427 	4909 	0.055114
38.43 	0.057364 	4916 	0.056649
38.47 	0.060118 	4907 	0.059283
38.51 	0.054947 	4932 	0.054235
38.55 	0.058752 	4936 	0.058040
38.59 	0.060926 	4924 	0.059360
38.63 	0.061129 	4924 	0.059702
38.67 	0.051853 	4937 	0.051141
38.71 	0.056661 	4924 	0.055809
38.75 	0.056627 	4927 	0.056032
38.79 	0.050061 	4934 	0.049467
38.83 	0.050823 	4919 	0.049851
38.87 	0.052128 	4911 	0.050915
38.91 	0.052009 	4903 	0.051292
38.95 	0.051444 	4918 	0.050967
38.99 	0.045169 	4937 	0.044220
39.03 	0.048034 	4934 	0.046966
39.07 	0.049350 	4924 	0.048636
39.11 	0.055364 	4931 	0.054770
39.15 	0.056358 	4915 	0.055643
39.19 	0.042099 	4917 	0.041622
39.23 	0.052589 	4925 	0.051994
39.27 	0.042159 	4910 	0.041682
39.31 	0.044431 	4884 	0.043951
39.35 	0.049848 	4935 	0.048542
39.39 	0.046663 	4929 	0.046544
39.43 	0.048855 	4933 	0.048261
39.47 	0.049157 	4923 	0.048562
39.51 	0.046507 	4924 	0.045555
39.55 	0.051433 	4919 	0.050461
39.59 	0.047638 	4912 	0.047042
39.63 	0.048151 	4922 	0.047437
39.67 	0.047222 	4913 	0.046149
39.71 	0.050255 	4895 	0.049178
39.75 	0.048498 	4928 	0.048023
39.79 	0.052984 	4926 	0.052033
39.83 	0.050061 	4934 	0.049586
39.87 	0.048528 	4925 	0.047576
39.91 	0.049777 	4922 	0.049181
39.95 	0.044354 	4915 	0.043520
39.99 	0.051095 	4932 	0.050857
40.03 	0.049513 	4928 	0.048919
40.07 	0.047329 	4923 	0.046972
40.11 	0.047396 	4916 	0.046205
40.15 	0.039894 	4913 	0.039159
40.19 	0.050112 	4929 	0.049042
40.23 	0.051095 	4932 	0.050501
40.27 	0.048410 	4937 	0.047698
40.31 	0.048188 	4939 	0.047120
40.35 	0.049400 	4919 	0.048666
40.39 	0.044818 	4931 	0.044106
40.43 	0.042056 	4922 	0.041580
40.47 	0.040260 	4918 	0.040141
40.51 	0.047745 	4922 	0.047150
40.55 	0.042584 	4908 	0.041987
40.59 	0.046790 	4937 	0.046315
40.63 	0.043408 	4930 	0.043051
40.67 	0.046837 	4932 	0.046243
40.71 	0.051703 	4932 	0.050872
40.75 	0.044210 	4931 	0.043854
40.79 	0.044070 	4924 	0.043594
40.83 	0.042817 	4928 	0.042222
40.87 	0.043425 	4928 	0.042831
40.91 	0.047938 	4923 	0.047462
40.95 	0.042744 	4913 	0.042267
40.99 	0.041430 	4924 	0.040835
41.03 	0.043425 	4905 	0.043067
41.07 	0.045233 	4930 	0.044639
41.11 	0.046809 	4935 	0.045958
41.15 	0.048573 	4941 	0.047980
41.19 	0.049290 	4930 	0.048815
41.23 	0.043734 	4939 	0.043259
41.27 	0.044413 	4931 	0.044057
41.31 	0.046219 	4933 	0.045863
41.35 	0.042122 	4938 	0.041885
41.39 	0.048855 	4933 	0.047905
41.43 	0.039562 	4929 	0.039324
41.47 	0.044458 	4926 	0.043744
41.51 	0.039676 	4940 	0.039320
41.55 	0.046403 	4935 	0.045691
41.59 	0.047436 	4933 	0.046723
41.63 	0.041312 	4938 	0.040838
41.67 	0.041903 	4940 	0.041666
41.71 	0.040130 	4934 	0.039892
41.75 	0.044025 	4929 	0.043906
41.79 	0.044296 	4944 	0.043230
41.83 	0.043628 	4928 	0.042915
41.87 	0.039108 	4935 	0.038871
41.91 	0.041329 	4936 	0.040736
41.95 	0.040965 	4931 	0.040609
41.99 	0.046075 	4905 	0.045120
42.03 	0.039684 	4939 	0.039328
42.07 	0.044764 	4937 	0.043933
42.11 	0.042669 	4945 	0.042432
42.15 	0.045160 	4938 	0.045160
42.19 	0.045232 	4908 	0.044755
42.23 	0.040065 	4892 	0.039826
42.27 	0.038367 	4874 	0.037766
42.31 	0.040783 	4855 	0.040059
42.35 	0.048987 	4838 	0.048624
42.39 	0.038301 	4804 	0.038058
42.43 	0.040693 	4792 	0.040326
42.47 	0.039244 	4765 	0.038876
42.51 	0.039216 	4743 	0.038722
42.55 	0.036321 	4708 	0.035823
42.59 	0.040178 	4729 	0.039434
42.63 	0.044171 	4709 	0.042927
42.67 	0.040991 	4684 	0.040115
42.71 	0.040103 	4663 	0.039852
42.75 	0.042235 	4617 	0.041601
42.79 	0.040157 	4582 	0.039518
42.83 	0.045855 	4536 	0.045339
42.87 	0.046677 	4499 	0.046026
42.91 	0.037029 	4456 	0.036897
42.95 	0.037138 	4416 	0.037005
42.99 	0.043558 	4385 	0.043023
43.03 	0.039465 	4333 	0.038789
43.07 	0.037709 	4296 	0.037437
43.11 	0.041128 	4255 	0.040853
43.15 	0.042558 	4206 	0.041862
43.19 	0.041488 	4194 	0.040929
43.23 	0.039239 	4154 	0.038675
43.27 	0.043362 	4105 	0.043076
43.31 	0.035303 	4079 	0.035159
43.35 	0.036954 	4032 	0.036519
43.39 	0.043978 	4002 	0.043222
43.43 	0.036111 	3960 	0.035815
43.47 	0.046927 	3921 	0.045881
43.51 	0.038948 	3877 	0.038494
43.55 	0.038462 	2964 	0.037671
43.59 	0.045246 	1746 	0.044911
43.63 	0.046953 	1001 	0.046368
43.67 	0.029880 	502 	0.029880
43.71 	0.050209 	239 	0.050209
43.75 	0.062500 	16 	0.062500