File: Example_Data/25SC_s1_0026.003.dat
#F C:\frames\spec\25SC_s1_0026.003
#C title =s:26 frm:3 25SC_s1
#C wavelength =0.15406

#S 1  fr_average C:\frames\spec\25SC_s1_0026.003 C:\win32app\speccom\mask.axs chi 0 180 0 360 0.02
#C 2 theta =0.000000 to 180 deg
#C   q   =0.000000 to 81.568 nm^-1
#C  chi  =0.000000 to 360 deg
#C collumns:
#C  1 position (2theta or chi in degrees)
#C  2 average intensity (sum of all counts in the region divided with number of pixels)
#C  3 Number of pixels in region)
#C  4 error (sum of sqrt(intensity) for all pixels divided by number)
#N 4
#L TTh  Int  N_pix  Err
32.99 	0.098361 	61 	0.098361
33.03 	0.056794 	1391 	0.056373
33.07 	0.062927 	2050 	0.061784
33.11 	0.060489 	2579 	0.059353
33.15 	0.054018 	2999 	0.053237
33.19 	0.057151 	3342 	0.056450
33.23 	0.060176 	3523 	0.058846
33.27 	0.055647 	3630 	0.054034
33.31 	0.049454 	3660 	0.048333
33.35 	0.051976 	3694 	0.051500
33.39 	0.059802 	3729 	0.058074
33.43 	0.059027 	3761 	0.057911
33.47 	0.063454 	3798 	0.061604
33.51 	0.060550 	3815 	0.059629
33.55 	0.059329 	3843 	0.057474
33.59 	0.069845 	3880 	0.068462
33.63 	0.059199 	3919 	0.058302
33.67 	0.058675 	3954 	0.057934
33.71 	0.061887 	3975 	0.060684
33.75 	0.054014 	3999 	0.052525
33.79 	0.059639 	4041 	0.058624
33.83 	0.064444 	4050 	0.062998
33.87 	0.070056 	4111 	0.068916
33.91 	0.058568 	4149 	0.057439
33.95 	0.063860 	4181 	0.063020
33.99 	0.060238 	4200 	0.059541
34.03 	0.054194 	4244 	0.052952
34.07 	0.060684 	4268 	0.059449
34.11 	0.062994 	4302 	0.061496
34.15 	0.060263 	4331 	0.059181
34.19 	0.056396 	4362 	0.055859
34.23 	0.062372 	4393 	0.061705
34.27 	0.061058 	4422 	0.060131
34.31 	0.060117 	4458 	0.059328
34.35 	0.059099 	4484 	0.058315
34.39 	0.054865 	4502 	0.053824
34.43 	0.059705 	4539 	0.058801
34.47 	0.059233 	4592 	0.058468
34.51 	0.055797 	4606 	0.055140
34.55 	0.061598 	4643 	0.059958
34.59 	0.064599 	4675 	0.063346
34.63 	0.057962 	4710 	0.056967
34.67 	0.056106 	4741 	0.055221
34.71 	0.056232 	4766 	0.055863
34.75 	0.055532 	4808 	0.053645
34.79 	0.062396 	4824 	0.061283
34.83 	0.052242 	4862 	0.051639
34.87 	0.055670 	4868 	0.054948
34.91 	0.052847 	4882 	0.052607
34.95 	0.053783 	4890 	0.052825
34.99 	0.051460 	4897 	0.050623
35.03 	0.058669 	4943 	0.057365
35.07 	0.058300 	4940 	0.056639
35.11 	0.056802 	4947 	0.055973
35.15 	0.059145 	4937 	0.058315
35.19 	0.058074 	4942 	0.056770
35.23 	0.055814 	4945 	0.054866
35.27 	0.060024 	4948 	0.058722
35.31 	0.055950 	4933 	0.054842
35.35 	0.060704 	4942 	0.059637
35.39 	0.054601 	4945 	0.053771
35.43 	0.061423 	4933 	0.060711
35.47 	0.054756 	4931 	0.053805
35.51 	0.056232 	4926 	0.055519
35.55 	0.058241 	4945 	0.057056
35.59 	0.056623 	4945 	0.055419
35.63 	0.066761 	4943 	0.065319
35.67 	0.053217 	4942 	0.051894
35.71 	0.057120 	4937 	0.056170
35.75 	0.057798 	4931 	0.056728
35.79 	0.054745 	4932 	0.053557
35.83 	0.061262 	4946 	0.060176
35.87 	0.053220 	4923 	0.052387
35.91 	0.057642 	4927 	0.056096
35.95 	0.055725 	4917 	0.054276
35.99 	0.057906 	4939 	0.056701
36.03 	0.053813 	4943 	0.053339
36.07 	0.055072 	4939 	0.054360
36.11 	0.060459 	4929 	0.059032
36.15 	0.055072 	4939 	0.054479
36.19 	0.060729 	4940 	0.058931
36.23 	0.053698 	4935 	0.052986
36.27 	0.057056 	4925 	0.056104
36.31 	0.054586 	4928 	0.053754
36.35 	0.055792 	4929 	0.054485
36.39 	0.060150 	4921 	0.058841
36.43 	0.061891 	4928 	0.060584
36.47 	0.050243 	4936 	0.049650
36.51 	0.057774 	4933 	0.057062
36.55 	0.052973 	4927 	0.052617
36.59 	0.051427 	4939 	0.050123
36.63 	0.052119 	4931 	0.051169
36.67 	0.053753 	4930 	0.053158
36.71 	0.058321 	4921 	0.057369
36.75 	0.052994 	4944 	0.052283
36.79 	0.055680 	4921 	0.054489
36.83 	0.057986 	4915 	0.057032
36.87 	0.053803 	4944 	0.052243
36.91 	0.053026 	4941 	0.052789
36.95 	0.047030 	4933 	0.046417
36.99 	0.055724 	4935 	0.055230
37.03 	0.059911 	4924 	0.059316
37.07 	0.057548 	4935 	0.056955
37.11 	0.056332 	4935 	0.055264
37.15 	0.055408 	4909 	0.054334
37.19 	0.054822 	4925 	0.053990
37.23 	0.052257 	4918 	0.051542
37.27 	0.050061 	4894 	0.048984
37.31 	0.051874 	4935 	0.051261
37.35 	0.049008 	4938 	0.048296
37.39 	0.050294 	4931 	0.048987
37.43 	0.051906 	4932 	0.050481
37.47 	0.055792 	4929 	0.054723
37.51 	0.051895 	4933 	0.050926
37.55 	0.059026 	4930 	0.058313
37.59 	0.045168 	4915 	0.044572
37.63 	0.051840 	4919 	0.050887
37.67 	0.053222 	4904 	0.052505
37.71 	0.050517 	4929 	0.049329
37.75 	0.046154 	4940 	0.045205
37.79 	0.056187 	4930 	0.054385
37.83 	0.049187 	4920 	0.048473
37.87 	0.053655 	4939 	0.052824
37.91 	0.050913 	4930 	0.050437
37.95 	0.052835 	4921 	0.052002
37.99 	0.049674 	4912 	0.049197
38.03 	0.050927 	4909 	0.050211
38.07 	0.053982 	4909 	0.052789
38.11 	0.054306 	4935 	0.053831
38.15 	0.053070 	4918 	0.052098
38.19 	0.051927 	4930 	0.051214
38.23 	0.053665 	4938 	0.052598
38.27 	0.056998 	4930 	0.055790
38.31 	0.059671 	4927 	0.058363
38.35 	0.053571 	4928 	0.052620
38.39 	0.062538 	4909 	0.061584
38.43 	0.057771 	4916 	0.056579
38.47 	0.064194 	4907 	0.063239
38.51 	0.051298 	4932 	0.050466
38.55 	0.056321 	4936 	0.055134
38.59 	0.057271 	4924 	0.056081
38.63 	0.057880 	4924 	0.057047
38.67 	0.053676 	4937 	0.053083
38.71 	0.050569 	4924 	0.050331
38.75 	0.051756 	4927 	0.051042
38.79 	0.050263 	4934 	0.049551
38.83 	0.051637 	4919 	0.049969
38.87 	0.049684 	4911 	0.048730
38.91 	0.048950 	4903 	0.048233
38.95 	0.045344 	4918 	0.044629
38.99 	0.046790 	4937 	0.046058
39.03 	0.046615 	4934 	0.045784
39.07 	0.046913 	4924 	0.046318
39.11 	0.047860 	4931 	0.047148
39.15 	0.046185 	4915 	0.045351
39.19 	0.039252 	4917 	0.038537
39.23 	0.051168 	4925 	0.050335
39.27 	0.051527 	4910 	0.050692
39.31 	0.046274 	4884 	0.045434
39.35 	0.049848 	4935 	0.049255
39.39 	0.047068 	4929 	0.046831
39.43 	0.046017 	4933 	0.045067
39.47 	0.046313 	4923 	0.045718
39.51 	0.045288 	4924 	0.044813
39.55 	0.041675 	4919 	0.040961
39.59 	0.042142 	4912 	0.041903
39.63 	0.043478 	4922 	0.042764
39.67 	0.046000 	4913 	0.045523
39.71 	0.048008 	4895 	0.047170
39.75 	0.044846 	4928 	0.044370
39.79 	0.043849 	4926 	0.043254
39.83 	0.048845 	4934 	0.048251
39.87 	0.051574 	4925 	0.050860
39.91 	0.050183 	4922 	0.049092
39.95 	0.046592 	4915 	0.045996
39.99 	0.043593 	4932 	0.042880
40.03 	0.052151 	4928 	0.050962
40.07 	0.050579 	4923 	0.050103
40.11 	0.046176 	4916 	0.046176
40.15 	0.048443 	4913 	0.048324
40.19 	0.050314 	4929 	0.049245
40.23 	0.048054 	4932 	0.047578
40.27 	0.042739 	4937 	0.042264
40.31 	0.045151 	4939 	0.044914
40.35 	0.042692 	4919 	0.042215
40.39 	0.041168 	4931 	0.041168
40.43 	0.038399 	4922 	0.038042
40.47 	0.045140 	4918 	0.044545
40.51 	0.049777 	4922 	0.049062
40.55 	0.042176 	4908 	0.041818
40.59 	0.045777 	4937 	0.045065
40.63 	0.048479 	4930 	0.047885
40.67 	0.047040 	4932 	0.046090
40.71 	0.041363 	4932 	0.040769
40.75 	0.041979 	4931 	0.041247
40.79 	0.051584 	4924 	0.051108
40.83 	0.042411 	4928 	0.041460
40.87 	0.045860 	4928 	0.045504
40.91 	0.044485 	4923 	0.044366
40.95 	0.048646 	4913 	0.047812
40.99 	0.039196 	4924 	0.038839
41.03 	0.040979 	4905 	0.040620
41.07 	0.044016 	4930 	0.043184
41.11 	0.047011 	4935 	0.046418
41.15 	0.042704 	4941 	0.042230
41.19 	0.040365 	4930 	0.040127
41.23 	0.045758 	4939 	0.045402
41.27 	0.045427 	4931 	0.044714
41.31 	0.040949 	4933 	0.040592
41.35 	0.042122 	4938 	0.041766
41.39 	0.046017 	4933 	0.045542
41.43 	0.047474 	4929 	0.046623
41.47 	0.043037 	4926 	0.042542
41.51 	0.040688 	4940 	0.040095
41.55 	0.044377 	4935 	0.044258
41.59 	0.045814 	4933 	0.045339
41.63 	0.043742 	4938 	0.042675
41.67 	0.044737 	4940 	0.044144
41.71 	0.042156 	4934 	0.041682
41.75 	0.037939 	4929 	0.037582
41.79 	0.042273 	4944 	0.041800
41.83 	0.042411 	4928 	0.041341
41.87 	0.044174 	4935 	0.043462
41.91 	0.037682 	4936 	0.037208
41.95 	0.039749 	4931 	0.039273
41.99 	0.039755 	4905 	0.039517
42.03 	0.040696 	4939 	0.040341
42.07 	0.042536 	4937 	0.041587
42.11 	0.040243 	4945 	0.039532
42.15 	0.045362 	4938 	0.044532
42.19 	0.042176 	4908 	0.041937
42.23 	0.043949 	4892 	0.043231
42.27 	0.042675 	4874 	0.042195
42.31 	0.039547 	4855 	0.038944
42.35 	0.041959 	4838 	0.041596
42.39 	0.042881 	4804 	0.042027
42.43 	0.041736 	4792 	0.041003
42.47 	0.039035 	4765 	0.038789
42.51 	0.040059 	4743 	0.039421
42.55 	0.040144 	4708 	0.039647
42.59 	0.041446 	4729 	0.040951
42.63 	0.036526 	4709 	0.036153
42.67 	0.042699 	4684 	0.041823
42.71 	0.041819 	4663 	0.041442
42.75 	0.038986 	4617 	0.038733
42.79 	0.042994 	4582 	0.042611
42.83 	0.037257 	4536 	0.037257
42.87 	0.046455 	4499 	0.045413
42.91 	0.043537 	4456 	0.043274
42.95 	0.041440 	4416 	0.041175
42.99 	0.043101 	4385 	0.042701
43.03 	0.038541 	4333 	0.037573
43.07 	0.041201 	4296 	0.040383
43.11 	0.040893 	4255 	0.040342
43.15 	0.039230 	4206 	0.039090
43.19 	0.042918 	4194 	0.042220
43.23 	0.043813 	4154 	0.042967
43.27 	0.045067 	4105 	0.043925
43.31 	0.035058 	4079 	0.034770
43.35 	0.039187 	4032 	0.038896
43.39 	0.037981 	4002 	0.037396
43.43 	0.041919 	3960 	0.041623
43.47 	0.042846 	3921 	0.042249
43.51 	0.042817 	3877 	0.042061
43.55 	0.040486 	2964 	0.039893
43.59 	0.047537 	1746 	0.046866
43.63 	0.038961 	1001 	0.038961
43.67 	0.031873 	502 	0.031873
43.71 	0.029289 	239 	0.029289
43.75 	0.000000 	16 	0.000000