File: Example_Data/25SC_s1_0004.000.dat
#F C:\frames\spec\25SC_s1_0004.000
#C title =s:4 frm:0 25SC_s1
#C wavelength =0.15406

#S 1  fr_average C:\frames\spec\25SC_s1_0004.000 C:\win32app\speccom\mask.axs chi 0 180 0 360 0.02
#C 2 theta =0.000000 to 180 deg
#C   q   =0.000000 to 81.568 nm^-1
#C  chi  =0.000000 to 360 deg
#C collumns:
#C  1 position (2theta or chi in degrees)
#C  2 average intensity (sum of all counts in the region divided with number of pixels)
#C  3 Number of pixels in region)
#C  4 error (sum of sqrt(intensity) for all pixels divided by number)
#N 4
#L TTh  Int  N_pix  Err
32.99 	0.114754 	61 	0.114754
33.03 	0.061107 	1391 	0.061107
33.07 	0.054146 	2050 	0.052718
33.11 	0.067080 	2579 	0.065263
33.15 	0.063021 	2999 	0.061849
33.19 	0.059246 	3342 	0.058194
33.23 	0.060744 	3523 	0.059912
33.27 	0.061157 	3630 	0.059866
33.31 	0.061749 	3660 	0.060628
33.35 	0.059285 	3694 	0.058149
33.39 	0.062483 	3729 	0.061541
33.43 	0.062749 	3761 	0.061322
33.47 	0.058189 	3798 	0.057417
33.51 	0.057929 	3815 	0.056701
33.55 	0.058808 	3843 	0.057894
33.59 	0.061340 	3880 	0.060132
33.63 	0.066343 	3919 	0.064849
33.67 	0.063733 	3954 	0.062844
33.71 	0.062642 	3975 	0.061463
33.75 	0.048512 	3999 	0.048073
33.79 	0.059639 	4041 	0.058624
33.83 	0.060741 	4050 	0.060018
33.87 	0.057407 	4111 	0.055982
33.91 	0.053266 	4149 	0.052701
33.95 	0.064099 	4181 	0.062698
33.99 	0.060000 	4200 	0.059303
34.03 	0.059849 	4244 	0.059159
34.07 	0.055295 	4268 	0.054472
34.11 	0.055323 	4302 	0.054642
34.15 	0.061418 	4331 	0.060336
34.19 	0.056396 	4362 	0.055053
34.23 	0.056226 	4393 	0.054892
34.27 	0.058345 	4422 	0.057815
34.31 	0.057873 	4458 	0.056822
34.35 	0.055085 	4484 	0.053909
34.39 	0.058863 	4502 	0.057952
34.43 	0.064552 	4539 	0.062982
34.47 	0.064024 	4592 	0.063004
34.51 	0.056665 	4606 	0.055902
34.55 	0.060952 	4643 	0.060069
34.59 	0.055615 	4675 	0.054362
34.63 	0.060297 	4710 	0.058784
34.67 	0.057583 	4741 	0.056327
34.71 	0.057281 	4766 	0.055909
34.75 	0.062396 	4808 	0.060670
34.79 	0.055141 	4824 	0.054291
34.83 	0.060880 	4862 	0.059555
34.87 	0.057108 	4868 	0.056025
34.91 	0.057149 	4882 	0.056069
34.95 	0.057260 	4890 	0.056062
34.99 	0.056157 	4897 	0.055319
35.03 	0.060490 	4943 	0.059660
35.07 	0.057085 	4940 	0.056018
35.11 	0.054174 	4947 	0.053345
35.15 	0.057727 	4937 	0.056778
35.19 	0.057871 	4942 	0.056904
35.23 	0.056016 	4945 	0.055049
35.27 	0.057599 	4948 	0.055804
35.31 	0.056152 	4933 	0.055321
35.35 	0.055443 	4942 	0.054732
35.39 	0.053994 	4945 	0.053402
35.43 	0.055139 	4933 	0.054308
35.47 	0.062056 	4931 	0.060987
35.51 	0.056841 	4926 	0.056128
35.55 	0.057027 	4945 	0.056317
35.59 	0.063903 	4945 	0.062481
35.63 	0.055027 	4943 	0.054435
35.67 	0.058883 	4942 	0.058053
35.71 	0.061373 	4937 	0.059317
35.75 	0.060231 	4931 	0.059518
35.79 	0.062855 	4932 	0.061054
35.83 	0.060049 	4946 	0.059101
35.87 	0.055454 	4923 	0.054145
35.91 	0.059874 	4927 	0.058923
35.95 	0.055725 	4917 	0.054772
35.99 	0.064588 	4939 	0.063283
36.03 	0.058467 	4943 	0.057755
36.07 	0.067827 	4939 	0.066286
36.11 	0.064719 	4929 	0.063293
36.15 	0.065195 	4939 	0.064247
36.19 	0.061741 	4940 	0.060792
36.23 	0.064843 	4935 	0.063993
36.27 	0.059898 	4925 	0.058352
36.31 	0.053369 	4928 	0.052299
36.35 	0.059038 	4929 	0.058088
36.39 	0.063199 	4921 	0.062246
36.43 	0.060877 	4928 	0.060163
36.47 	0.066045 	4936 	0.064740
36.51 	0.062437 	4933 	0.060655
36.55 	0.063528 	4927 	0.063052
36.59 	0.056084 	4939 	0.055610
36.63 	0.063679 	4931 	0.063085
36.67 	0.065517 	4930 	0.064567
36.71 	0.059134 	4921 	0.057944
36.75 	0.064320 	4944 	0.063136
36.79 	0.061979 	4921 	0.061027
36.83 	0.051679 	4915 	0.050129
36.87 	0.058657 	4944 	0.057828
36.91 	0.060312 	4941 	0.059008
36.95 	0.061018 	4933 	0.060068
36.99 	0.061803 	4935 	0.060973
37.03 	0.057880 	4924 	0.056571
37.07 	0.060790 	4935 	0.059010
37.11 	0.055522 	4935 	0.054810
37.15 	0.062742 	4909 	0.061887
37.19 	0.056853 	4925 	0.056139
37.23 	0.063847 	4918 	0.063013
37.27 	0.059869 	4894 	0.058912
37.31 	0.059980 	4935 	0.057962
37.35 	0.061766 	4938 	0.059749
37.39 	0.058406 	4931 	0.057080
37.43 	0.060219 	4932 	0.059625
37.47 	0.063502 	4929 	0.062432
37.51 	0.062437 	4933 	0.062080
37.55 	0.051116 	4930 	0.050640
37.59 	0.058189 	4915 	0.057355
37.63 	0.054279 	4919 	0.052969
37.67 	0.057708 	4904 	0.056872
37.71 	0.055184 	4929 	0.053757
37.75 	0.055061 	4940 	0.054349
37.79 	0.064503 	4930 	0.063552
37.83 	0.058130 	4920 	0.057297
37.87 	0.062361 	4939 	0.061412
37.91 	0.053144 	4930 	0.052788
37.95 	0.055070 	4921 	0.054713
37.99 	0.062296 	4912 	0.061819
38.03 	0.053575 	4909 	0.052382
38.07 	0.058668 	4909 	0.057952
38.11 	0.056738 	4935 	0.055551
38.15 	0.063644 	4918 	0.062691
38.19 	0.057606 	4930 	0.057012
38.23 	0.061563 	4938 	0.060970
38.27 	0.063286 	4930 	0.062098
38.31 	0.060889 	4927 	0.060057
38.35 	0.057630 	4928 	0.057036
38.39 	0.074557 	4909 	0.072767
38.43 	0.077705 	4916 	0.076156
38.47 	0.076829 	4907 	0.075158
38.51 	0.085564 	4932 	0.083644
38.55 	0.079822 	4936 	0.077923
38.59 	0.077782 	4924 	0.076236
38.63 	0.083672 	4924 	0.081035
38.67 	0.082439 	4937 	0.080422
38.71 	0.067425 	4924 	0.065997
38.75 	0.061092 	4927 	0.059883
38.79 	0.063640 	4934 	0.061958
38.83 	0.058548 	4919 	0.057596
38.87 	0.054368 	4911 	0.053771
38.91 	0.049969 	4903 	0.049611
38.95 	0.054087 	4918 	0.053491
38.99 	0.050435 	4937 	0.050080
39.03 	0.049453 	4934 	0.049215
39.07 	0.053615 	4924 	0.052901
39.11 	0.047252 	4931 	0.046401
39.15 	0.045371 	4915 	0.044775
39.19 	0.051454 	4917 	0.050620
39.23 	0.043452 	4925 	0.042738
39.27 	0.049084 	4910 	0.048368
39.31 	0.047297 	4884 	0.045978
39.35 	0.044174 	4935 	0.043343
39.39 	0.048083 	4929 	0.047132
39.43 	0.042570 	4933 	0.041977
39.47 	0.046313 	4923 	0.045718
39.51 	0.045491 	4924 	0.045016
39.55 	0.043708 	4919 	0.043470
39.59 	0.044178 	4912 	0.043343
39.63 	0.045713 	4922 	0.045356
39.67 	0.047629 	4913 	0.046675
39.71 	0.044740 	4895 	0.043902
39.75 	0.046672 	4928 	0.045721
39.79 	0.043646 	4926 	0.043289
39.83 	0.047426 	4934 	0.046476
39.87 	0.043249 	4925 	0.042654
39.91 	0.047338 	4922 	0.046743
39.95 	0.046999 	4915 	0.046999
39.99 	0.039740 	4932 	0.039384
40.03 	0.042005 	4928 	0.041411
40.07 	0.045298 	4923 	0.044822
40.11 	0.045566 	4916 	0.044970
40.15 	0.045390 	4913 	0.044913
40.19 	0.045445 	4929 	0.044732
40.23 	0.050487 	4932 	0.049873
40.27 	0.045372 	4937 	0.044660
40.31 	0.044948 	4939 	0.043881
40.35 	0.040455 	4919 	0.040217
40.39 	0.045630 	4931 	0.045036
40.43 	0.041853 	4922 	0.041615
40.47 	0.041074 	4918 	0.040954
40.51 	0.050792 	4922 	0.050078
40.55 	0.042991 	4908 	0.042394
40.59 	0.043751 	4937 	0.043158
40.63 	0.046045 	4930 	0.045451
40.67 	0.038321 	4932 	0.037827
40.71 	0.043593 	4932 	0.043118
40.75 	0.042385 	4931 	0.042385
40.79 	0.044070 	4924 	0.043356
40.83 	0.046266 	4928 	0.045533
40.87 	0.045860 	4928 	0.045028
40.91 	0.042860 	4923 	0.042146
40.95 	0.038673 	4913 	0.038196
40.99 	0.042851 	4924 	0.041900
41.03 	0.036290 	4905 	0.035812
41.07 	0.038337 	4930 	0.038337
41.11 	0.044377 	4935 	0.043902
41.15 	0.041894 	4941 	0.041657
41.19 	0.043002 	4930 	0.042408
41.23 	0.040494 	4939 	0.040257
41.27 	0.043805 	4931 	0.043211
41.31 	0.044598 	4933 	0.043885
41.35 	0.036655 	4938 	0.036061
41.39 	0.047233 	4933 	0.046520
41.43 	0.037939 	4929 	0.037582
41.47 	0.039789 	4926 	0.039551
41.51 	0.041700 	4940 	0.040989
41.55 	0.043566 	4935 	0.042735
41.59 	0.042165 	4933 	0.041690
41.63 	0.042325 	4938 	0.041732
41.67 	0.040891 	4940 	0.040061
41.71 	0.040940 	4934 	0.040347
41.75 	0.038750 	4929 	0.038394
41.79 	0.043285 	4944 	0.042929
41.83 	0.043831 	4928 	0.043118
41.87 	0.034245 	4935 	0.034008
41.91 	0.041126 	4936 	0.040414
41.95 	0.041777 	4931 	0.041301
41.99 	0.037105 	4905 	0.036747
42.03 	0.038469 	4939 	0.037995
42.07 	0.042941 	4937 	0.041755
42.11 	0.040647 	4945 	0.039936
42.15 	0.041312 	4938 	0.040719
42.19 	0.041157 	4908 	0.041038
42.23 	0.042518 	4892 	0.041680
42.27 	0.038572 	4874 	0.038091
42.31 	0.040783 	4855 	0.040179
42.35 	0.039066 	4838 	0.038581
42.39 	0.038510 	4804 	0.038144
42.43 	0.037771 	4792 	0.037160
42.47 	0.042183 	4765 	0.041937
42.51 	0.038162 	4743 	0.037667
42.55 	0.039720 	4708 	0.039098
42.59 	0.048002 	4729 	0.047506
42.63 	0.035464 	4709 	0.035215
42.67 	0.040991 	4684 	0.039990
42.71 	0.039460 	4663 	0.038831
42.75 	0.037254 	4617 	0.036746
42.79 	0.042994 	4582 	0.042227
42.83 	0.040785 	4536 	0.040397
42.87 	0.039120 	4499 	0.038990
42.91 	0.039722 	4456 	0.039327
42.95 	0.039402 	4416 	0.039402
42.99 	0.040821 	4385 	0.040821
43.03 	0.039465 	4333 	0.039329
43.07 	0.041899 	4296 	0.041354
43.11 	0.031727 	4255 	0.031590
43.15 	0.037565 	4206 	0.036590
43.19 	0.038865 	4194 	0.038586
43.23 	0.036832 	4154 	0.036691
43.27 	0.041657 	4105 	0.041228
43.31 	0.037754 	4079 	0.037467
43.35 	0.034722 	4032 	0.034286
43.39 	0.035482 	4002 	0.035482
43.43 	0.034848 	3960 	0.034553
43.47 	0.039021 	3921 	0.038274
43.51 	0.039464 	3877 	0.038859
43.55 	0.036100 	2964 	0.036100
43.59 	0.032646 	1746 	0.031640
43.63 	0.033966 	1001 	0.033966
43.67 	0.021912 	502 	0.021912
43.71 	0.029289 	239 	0.029289
43.75 	0.000000 	16 	0.000000