File: Example_Data/25SC_s1_0051.004.dat
#F C:\frames\spec\25SC_s1_0051.004
#C title =s:51 frm:4 25SC_s1
#C wavelength =0.15406

#S 1  fr_average C:\frames\spec\25SC_s1_0051.004 C:\win32app\speccom\mask.axs chi 0 180 0 360 0.02
#C 2 theta =0.000000 to 180 deg
#C   q   =0.000000 to 81.568 nm^-1
#C  chi  =0.000000 to 360 deg
#C collumns:
#C  1 position (2theta or chi in degrees)
#C  2 average intensity (sum of all counts in the region divided with number of pixels)
#C  3 Number of pixels in region)
#C  4 error (sum of sqrt(intensity) for all pixels divided by number)
#N 4
#L TTh  Int  N_pix  Err
32.99 	0.032787 	61 	0.032787
33.03 	0.050324 	1391 	0.048218
33.07 	0.054634 	2050 	0.054063
33.11 	0.054285 	2579 	0.053376
33.15 	0.048349 	2999 	0.046950
33.19 	0.046978 	3342 	0.046101
33.23 	0.050241 	3523 	0.049077
33.27 	0.055372 	3630 	0.054081
33.31 	0.051639 	3660 	0.051319
33.35 	0.047645 	3694 	0.047486
33.39 	0.048002 	3729 	0.047217
33.43 	0.049189 	3761 	0.048410
33.47 	0.060558 	3798 	0.059633
33.51 	0.057143 	3815 	0.055607
33.55 	0.054385 	3843 	0.053775
33.59 	0.054897 	3880 	0.053689
33.63 	0.049502 	3919 	0.048456
33.67 	0.057663 	3954 	0.056750
33.71 	0.047044 	3975 	0.046160
33.75 	0.046762 	3999 	0.046029
33.79 	0.058154 	4041 	0.057574
33.83 	0.049630 	4050 	0.048617
33.87 	0.050596 	4111 	0.050026
33.91 	0.055435 	4149 	0.054847
33.95 	0.049749 	4181 	0.048908
33.99 	0.050952 	4200 	0.050394
34.03 	0.052074 	4244 	0.051245
34.07 	0.052952 	4268 	0.052403
34.11 	0.053696 	4302 	0.053151
34.15 	0.052413 	4331 	0.051060
34.19 	0.046768 	4362 	0.046230
34.23 	0.049397 	4393 	0.048197
34.27 	0.055631 	4422 	0.054571
34.31 	0.059444 	4458 	0.058392
34.35 	0.051740 	4484 	0.050956
34.39 	0.053532 	4502 	0.053011
34.43 	0.056620 	4539 	0.055201
34.47 	0.044861 	4592 	0.044223
34.51 	0.053843 	4606 	0.052953
34.55 	0.049537 	4643 	0.049285
34.59 	0.057540 	4675 	0.056914
34.63 	0.055626 	4710 	0.055004
34.67 	0.053153 	4741 	0.052536
34.71 	0.057700 	4766 	0.056471
34.75 	0.052413 	4808 	0.052047
34.79 	0.057836 	4824 	0.056864
34.83 	0.058412 	4862 	0.056966
34.87 	0.050329 	4868 	0.049005
34.91 	0.053052 	4882 	0.052092
34.95 	0.050716 	4890 	0.050117
34.99 	0.051256 	4897 	0.049940
35.03 	0.051588 	4943 	0.050759
35.07 	0.053239 	4940 	0.052271
35.11 	0.056398 	4947 	0.055431
35.15 	0.049018 	4937 	0.048424
35.19 	0.048563 	4942 	0.048089
35.23 	0.051567 	4945 	0.050738
35.27 	0.050525 	4948 	0.049578
35.31 	0.048855 	4933 	0.048498
35.35 	0.054027 	4942 	0.053671
35.39 	0.045703 	4945 	0.044992
35.43 	0.054936 	4933 	0.053986
35.47 	0.054958 	4931 	0.054127
35.51 	0.049127 	4926 	0.048176
35.55 	0.047523 	4945 	0.047049
35.59 	0.057230 	4945 	0.056282
35.63 	0.049970 	4943 	0.048903
35.67 	0.046742 	4942 	0.045912
35.71 	0.054892 	4937 	0.053705
35.75 	0.053944 	4931 	0.053350
35.79 	0.047648 	4932 	0.046935
35.83 	0.047311 	4946 	0.046482
35.87 	0.054235 	4923 	0.053164
35.91 	0.047899 	4927 	0.047424
35.95 	0.053691 	4917 	0.052857
35.99 	0.048593 	4939 	0.048000
36.03 	0.056646 	4943 	0.055935
36.07 	0.055679 	4939 	0.054612
36.11 	0.051735 	4929 	0.050883
36.15 	0.053250 	4939 	0.052775
36.19 	0.051215 	4940 	0.050859
36.23 	0.052077 	4935 	0.051721
36.27 	0.052183 	4925 	0.051469
36.31 	0.051745 	4928 	0.050913
36.35 	0.053763 	4929 	0.052199
36.39 	0.052428 	4921 	0.051933
36.43 	0.052963 	4928 	0.052368
36.47 	0.054498 	4936 	0.053548
36.51 	0.049666 	4933 	0.049191
36.55 	0.056221 	4927 	0.055389
36.59 	0.054869 	4939 	0.053802
36.63 	0.050294 	4931 	0.048987
36.67 	0.055984 	4930 	0.054776
36.71 	0.056696 	4921 	0.056220
36.75 	0.056837 	4944 	0.056126
36.79 	0.046129 	4921 	0.045534
36.83 	0.053917 	4915 	0.052963
36.87 	0.048948 	4944 	0.048119
36.91 	0.049383 	4941 	0.048790
36.95 	0.050274 	4933 	0.049324
36.99 	0.052482 	4935 	0.051869
37.03 	0.048741 	4924 	0.048384
37.07 	0.048024 	4935 	0.046699
37.11 	0.049037 	4935 	0.047594
37.15 	0.048686 	4909 	0.048209
37.19 	0.047310 	4925 	0.046477
37.23 	0.050427 	4918 	0.050189
37.27 	0.042705 	4894 	0.042227
37.31 	0.045795 	4935 	0.045083
37.35 	0.053868 	4938 	0.052682
37.39 	0.051916 	4931 	0.051204
37.43 	0.046431 	4932 	0.045600
37.47 	0.052343 	4929 	0.051630
37.51 	0.043989 	4933 	0.043277
37.55 	0.044016 	4930 	0.043303
37.59 	0.046999 	4915 	0.046880
37.63 	0.048587 	4919 	0.047515
37.67 	0.050367 	4904 	0.049770
37.71 	0.051735 	4929 	0.050546
37.75 	0.053846 	4940 	0.052660
37.79 	0.051724 	4930 	0.050536
37.83 	0.049390 	4920 	0.048676
37.87 	0.055274 	4939 	0.054444
37.91 	0.056187 	4930 	0.054880
37.95 	0.046738 	4921 	0.046024
37.99 	0.049674 	4912 	0.049078
38.03 	0.049094 	4909 	0.048497
38.07 	0.045427 	4909 	0.044830
38.11 	0.051469 	4935 	0.050163
38.15 	0.050427 	4918 	0.049951
38.19 	0.052738 	4930 	0.051412
38.23 	0.054475 	4938 	0.053645
38.27 	0.051521 	4930 	0.050690
38.31 	0.059062 	4927 	0.057992
38.35 	0.057021 	4928 	0.056308
38.39 	0.059890 	4909 	0.059532
38.43 	0.058381 	4916 	0.057428
38.47 	0.058488 	4907 	0.057294
38.51 	0.057989 	4932 	0.057157
38.55 	0.060981 	4936 	0.059675
38.59 	0.057474 	4924 	0.056522
38.63 	0.063160 	4924 	0.062327
38.67 	0.053271 	4937 	0.052678
38.71 	0.055037 	4924 	0.054085
38.75 	0.057439 	4927 	0.056487
38.79 	0.056546 	4934 	0.055240
38.83 	0.052246 	4919 	0.051532
38.87 	0.045816 	4911 	0.044981
38.91 	0.052009 	4903 	0.050934
38.95 	0.045344 	4918 	0.044986
38.99 	0.045372 	4937 	0.044541
39.03 	0.052088 	4934 	0.051375
39.07 	0.052396 	4924 	0.051683
39.11 	0.048672 	4931 	0.047840
39.15 	0.054934 	4915 	0.054100
39.19 	0.038235 	4917 	0.037639
39.23 	0.050558 	4925 	0.049607
39.27 	0.051120 	4910 	0.050524
39.31 	0.049754 	4884 	0.049035
39.35 	0.045390 	4935 	0.045034
39.39 	0.046257 	4929 	0.045405
39.43 	0.049260 	4933 	0.048191
39.47 	0.050173 	4923 	0.049816
39.51 	0.051381 	4924 	0.050429
39.55 	0.048994 	4919 	0.047922
39.59 	0.046010 	4912 	0.045413
39.63 	0.048151 	4922 	0.047675
39.67 	0.051700 	4913 	0.050607
39.71 	0.054545 	4895 	0.053947
39.75 	0.048498 	4928 	0.047785
39.79 	0.048112 	4926 	0.047280
39.83 	0.044386 	4934 	0.043436
39.87 	0.048731 	4925 	0.048255
39.91 	0.050183 	4922 	0.049350
39.95 	0.048627 	4915 	0.048388
39.99 	0.049270 	4932 	0.048557
40.03 	0.049919 	4928 	0.048849
40.07 	0.045907 	4923 	0.045550
40.11 	0.047803 	4916 	0.047207
40.15 	0.048239 	4913 	0.047405
40.19 	0.050314 	4929 	0.049601
40.23 	0.045215 	4932 	0.044502
40.27 	0.043549 	4937 	0.043311
40.31 	0.051022 	4939 	0.049243
40.35 	0.046554 	4919 	0.045840
40.39 	0.045630 	4931 	0.045155
40.43 	0.047135 	4922 	0.045707
40.47 	0.041480 	4918 	0.041361
40.51 	0.046119 	4922 	0.045881
40.55 	0.046251 	4908 	0.045535
40.59 	0.041726 	4937 	0.041132
40.63 	0.049696 	4930 	0.049458
40.67 	0.049270 	4932 	0.048557
40.71 	0.045215 	4932 	0.044740
40.75 	0.041574 	4931 	0.040980
40.79 	0.049756 	4924 	0.048924
40.83 	0.050933 	4928 	0.049982
40.87 	0.042411 	4928 	0.041935
40.91 	0.050173 	4923 	0.048745
40.95 	0.050275 	4913 	0.048963
40.99 	0.043664 	4924 	0.043069
41.03 	0.046687 	4905 	0.046329
41.07 	0.046450 	4930 	0.046213
41.11 	0.046606 	4935 	0.046012
41.15 	0.047156 	4941 	0.046445
41.19 	0.043611 	4930 	0.042898
41.23 	0.043936 	4939 	0.043106
41.27 	0.051714 	4931 	0.050506
41.31 	0.036489 	4933 	0.036014
41.35 	0.041920 	4938 	0.041683
41.39 	0.052098 	4933 	0.051267
41.43 	0.035301 	4929 	0.034826
41.47 	0.048315 	4926 	0.047720
41.51 	0.045142 	4940 	0.044549
41.55 	0.048835 	4935 	0.047885
41.59 	0.046422 	4933 	0.045947
41.63 	0.040907 	4938 	0.040433
41.67 	0.048785 	4940 	0.048173
41.71 	0.043575 	4934 	0.042625
41.75 	0.044634 	4929 	0.044277
41.79 	0.043689 	4944 	0.043215
41.83 	0.038352 	4928 	0.037996
41.87 	0.045390 	4935 	0.044559
41.91 	0.039100 	4936 	0.038863
41.95 	0.042182 	4931 	0.041707
41.99 	0.044852 	4905 	0.044136
42.03 	0.045353 	4939 	0.044997
42.07 	0.042941 	4937 	0.042110
42.11 	0.034985 	4945 	0.034866
42.15 	0.039692 	4938 	0.039336
42.19 	0.037490 	4908 	0.037012
42.23 	0.042314 	4892 	0.041715
42.27 	0.043906 	4874 	0.043546
42.31 	0.040371 	4855 	0.040129
42.35 	0.040513 	4838 	0.040149
42.39 	0.044546 	4804 	0.043937
42.43 	0.049457 	4792 	0.049091
42.47 	0.043652 	4765 	0.043140
42.51 	0.044065 	4743 	0.043571
42.55 	0.038658 	4708 	0.038533
42.59 	0.040178 	4729 	0.039682
42.63 	0.042897 	4709 	0.042648
42.67 	0.039496 	4684 	0.038996
42.71 	0.042891 	4663 	0.042263
42.75 	0.043751 	4617 	0.043371
42.79 	0.047359 	4582 	0.046720
42.83 	0.039021 	4536 	0.038634
42.87 	0.041120 	4499 	0.040339
42.91 	0.043312 	4456 	0.042392
42.95 	0.046422 	4416 	0.045228
42.99 	0.047662 	4385 	0.047529
43.03 	0.042003 	4333 	0.041733
43.07 	0.040270 	4296 	0.039588
43.11 	0.044183 	4255 	0.043472
43.15 	0.041369 	4206 	0.040952
43.19 	0.039819 	4194 	0.038981
43.23 	0.041406 	4154 	0.040560
43.27 	0.039708 	4105 	0.039708
43.31 	0.036774 	4079 	0.036486
43.35 	0.042163 	4032 	0.041582
43.39 	0.042979 	4002 	0.042539
43.43 	0.038384 	3960 	0.037940
43.47 	0.039531 	3921 	0.039058
43.51 	0.043075 	3877 	0.041690
43.55 	0.043860 	2964 	0.043464
43.59 	0.050401 	1746 	0.049059
43.63 	0.047952 	1001 	0.046782
43.67 	0.037849 	502 	0.037849
43.71 	0.037657 	239 	0.035206
43.75 	0.000000 	16 	0.000000