File: Example_Data/25SC_s1_0016.000.dat
#F C:\frames\spec\25SC_s1_0016.000
#C title =s:16 frm:0 25SC_s1
#C wavelength =0.15406

#S 1  fr_average C:\frames\spec\25SC_s1_0016.000 C:\win32app\speccom\mask.axs chi 0 180 0 360 0.02
#C 2 theta =0.000000 to 180 deg
#C   q   =0.000000 to 81.568 nm^-1
#C  chi  =0.000000 to 360 deg
#C collumns:
#C  1 position (2theta or chi in degrees)
#C  2 average intensity (sum of all counts in the region divided with number of pixels)
#C  3 Number of pixels in region)
#C  4 error (sum of sqrt(intensity) for all pixels divided by number)
#N 4
#L TTh  Int  N_pix  Err
32.99 	0.081967 	61 	0.081967
33.03 	0.048167 	1391 	0.047746
33.07 	0.065366 	2050 	0.064223
33.11 	0.058550 	2579 	0.057641
33.15 	0.058686 	2999 	0.057905
33.19 	0.058947 	3342 	0.057720
33.23 	0.059324 	3523 	0.057662
33.27 	0.062259 	3630 	0.060807
33.31 	0.056557 	3660 	0.055597
33.35 	0.063887 	3694 	0.062777
33.39 	0.060070 	3729 	0.059284
33.43 	0.057963 	3761 	0.056873
33.47 	0.058452 	3798 	0.058298
33.51 	0.050590 	3815 	0.049668
33.55 	0.061671 	3843 	0.060756
33.59 	0.063660 	3880 	0.062301
33.63 	0.058944 	3919 	0.057748
33.67 	0.062468 	3954 	0.060987
33.71 	0.062642 	3975 	0.061315
33.75 	0.065266 	3999 	0.064241
33.79 	0.066073 	4041 	0.065058
33.83 	0.059259 	4050 	0.058247
33.87 	0.054245 	4111 	0.053390
33.91 	0.057604 	4149 	0.056757
33.95 	0.061708 	4181 	0.060587
33.99 	0.064286 	4200 	0.062729
34.03 	0.061499 	4244 	0.060670
34.07 	0.059513 	4268 	0.058529
34.11 	0.063924 	4302 	0.062154
34.15 	0.051720 	4331 	0.051179
34.19 	0.059147 	4362 	0.057514
34.23 	0.061006 	4393 	0.060073
34.27 	0.061511 	4422 	0.061113
34.31 	0.049349 	4458 	0.048014
34.35 	0.058653 	4484 	0.057739
34.39 	0.058863 	4502 	0.058082
34.43 	0.060806 	4539 	0.060032
34.47 	0.053354 	4592 	0.052312
34.51 	0.058619 	4606 	0.057729
34.55 	0.056429 	4643 	0.054894
34.59 	0.057326 	4675 	0.055551
34.63 	0.055839 	4710 	0.054844
34.67 	0.058637 	4741 	0.057278
34.71 	0.051825 	4766 	0.051211
34.75 	0.059068 	4808 	0.058215
34.79 	0.056385 	4824 	0.055778
34.83 	0.057795 	4862 	0.057313
34.87 	0.057108 	4868 	0.056626
34.91 	0.056944 	4882 	0.056584
34.95 	0.057464 	4890 	0.056985
34.99 	0.060649 	4897 	0.059573
35.03 	0.056241 	4943 	0.054938
35.07 	0.055870 	4940 	0.054922
35.11 	0.055387 	4947 	0.054558
35.15 	0.061373 	4937 	0.060543
35.19 	0.063942 	4942 	0.063349
35.23 	0.062083 	4945 	0.060780
35.27 	0.058610 	4948 	0.057899
35.31 	0.054125 	4933 	0.053294
35.35 	0.052206 	4942 	0.051613
35.39 	0.064105 	4945 	0.062565
35.43 	0.057166 	4933 	0.056335
35.47 	0.059014 	4931 	0.058183
35.51 	0.055217 	4926 	0.054504
35.55 	0.055005 	4945 	0.053801
35.59 	0.060667 	4945 	0.059601
35.63 	0.057253 	4943 	0.056423
35.67 	0.060704 	4942 	0.059637
35.71 	0.056309 	4937 	0.055123
35.75 	0.056784 	4931 	0.055596
35.79 	0.057380 	4932 	0.056549
35.83 	0.056814 	4946 	0.055985
35.87 	0.052610 	4923 	0.052134
35.91 	0.060686 	4927 	0.059121
35.95 	0.060403 	4917 	0.059450
35.99 	0.057906 	4939 	0.056720
36.03 	0.062513 	4943 	0.061170
36.07 	0.062158 	4939 	0.060716
36.11 	0.056401 	4929 	0.055450
36.15 	0.059729 	4939 	0.058898
36.19 	0.053036 	4940 	0.052444
36.23 	0.054711 	4935 	0.053406
36.27 	0.065381 	4925 	0.064548
36.31 	0.057630 	4928 	0.056322
36.35 	0.056401 	4929 	0.055212
36.39 	0.066450 	4921 	0.065140
36.43 	0.058442 	4928 	0.057847
36.47 	0.060575 	4936 	0.059488
36.51 	0.061018 	4933 	0.059573
36.55 	0.065557 	4927 	0.064012
36.59 	0.056894 	4939 	0.056301
36.63 	0.057189 	4931 	0.056239
36.67 	0.056998 	4930 	0.055929
36.71 	0.060760 	4921 	0.059093
36.75 	0.053803 	4944 	0.053210
36.79 	0.056493 	4921 	0.055302
36.83 	0.057782 	4915 	0.056590
36.87 	0.059061 	4944 	0.057995
36.91 	0.056871 	4941 	0.055923
36.95 	0.060207 	4933 	0.058782
36.99 	0.068896 	4935 	0.067827
37.03 	0.060723 	4924 	0.059890
37.07 	0.062411 	4935 	0.061343
37.11 	0.062614 	4935 	0.061308
37.15 	0.060094 	4909 	0.058900
37.19 	0.059492 	4925 	0.058303
37.23 	0.063847 	4918 	0.062299
37.27 	0.065182 	4894 	0.063985
37.31 	0.060790 	4935 	0.059366
37.35 	0.057108 	4938 	0.056752
37.39 	0.064896 	4931 	0.063708
37.43 	0.064680 	4932 	0.063729
37.47 	0.068371 	4929 	0.067539
37.51 	0.054531 	4933 	0.053462
37.55 	0.059432 	4930 	0.058363
37.59 	0.052289 	4915 	0.051097
37.63 	0.061191 	4919 	0.060477
37.67 	0.057708 	4904 	0.056633
37.71 	0.058835 	4929 	0.058360
37.75 	0.053644 	4940 	0.052932
37.79 	0.057809 	4930 	0.056740
37.83 	0.056707 	4920 	0.056112
37.87 	0.063576 	4939 	0.062706
37.91 	0.059838 	4930 	0.059125
37.95 	0.056289 	4921 	0.055218
37.99 	0.055782 	4912 	0.054947
38.03 	0.056223 	4909 	0.055388
38.07 	0.056631 	4909 	0.055557
38.11 	0.052888 	4935 	0.052769
38.15 	0.058560 	4918 	0.057369
38.19 	0.058418 	4930 	0.057230
38.23 	0.060348 	4938 	0.058925
38.27 	0.056187 	4930 	0.054979
38.31 	0.062107 	4927 	0.060799
38.35 	0.058036 	4928 	0.057204
38.39 	0.062131 	4909 	0.061057
38.43 	0.059194 	4916 	0.057765
38.47 	0.069289 	4907 	0.068095
38.51 	0.073601 	4932 	0.072413
38.55 	0.070300 	4936 	0.068638
38.59 	0.067628 	4924 	0.066319
38.63 	0.077173 	4924 	0.075270
38.67 	0.084869 	4937 	0.083208
38.71 	0.075548 	4924 	0.073387
38.75 	0.085650 	4927 	0.082996
38.79 	0.087150 	4934 	0.085132
38.83 	0.076845 	4919 	0.074662
38.87 	0.072287 	4911 	0.071074
38.91 	0.067510 	4903 	0.066673
38.95 	0.061204 	4918 	0.060608
38.99 	0.058943 	4937 	0.057400
39.03 	0.057357 	4934 	0.056526
39.07 	0.058895 	4924 	0.057943
39.11 	0.054756 	4931 	0.053092
39.15 	0.052492 	4915 	0.051658
39.19 	0.055725 	4917 	0.054772
39.23 	0.045482 	4925 	0.044650
39.27 	0.051120 	4910 	0.050046
39.31 	0.039312 	4884 	0.039312
39.35 	0.049645 	4935 	0.048933
39.39 	0.050112 	4929 	0.049399
39.43 	0.043584 	4933 	0.042872
39.47 	0.049360 	4923 	0.048884
39.51 	0.050162 	4924 	0.049687
39.55 	0.048384 	4919 	0.048027
39.59 	0.048249 	4912 	0.047772
39.63 	0.048151 	4922 	0.047199
39.67 	0.043761 	4913 	0.043285
39.71 	0.041471 	4895 	0.040992
39.75 	0.041396 	4928 	0.041039
39.79 	0.041007 	4926 	0.040531
39.83 	0.049047 	4934 	0.048573
39.87 	0.044670 	4925 	0.044194
39.91 	0.042666 	4922 	0.042309
39.95 	0.046999 	4915 	0.046403
39.99 	0.043796 	4932 	0.042845
40.03 	0.047281 	4928 	0.046568
40.07 	0.049970 	4923 	0.049851
40.11 	0.045769 	4916 	0.045411
40.15 	0.048036 	4913 	0.047917
40.19 	0.042808 	4929 	0.042332
40.23 	0.039943 	4932 	0.039824
40.27 	0.043144 	4937 	0.042906
40.31 	0.047378 	4939 	0.046429
40.35 	0.045741 	4919 	0.044550
40.39 	0.042993 	4931 	0.042518
40.43 	0.044088 	4922 	0.043850
40.47 	0.044530 	4918 	0.043816
40.51 	0.044900 	4922 	0.044543
40.55 	0.042176 	4908 	0.041937
40.59 	0.042131 	4937 	0.041894
40.63 	0.040162 	4930 	0.039925
40.67 	0.040957 	4932 	0.040244
40.71 	0.040552 	4932 	0.039839
40.75 	0.044413 	4931 	0.043344
40.79 	0.047725 	4924 	0.047012
40.83 	0.047078 	4928 	0.046959
40.87 	0.043628 	4928 	0.043034
40.91 	0.042251 	4923 	0.041517
40.95 	0.044372 	4913 	0.043299
40.99 	0.044070 	4924 	0.043713
41.03 	0.039551 	4905 	0.038835
41.07 	0.043611 	4930 	0.043373
41.11 	0.042756 	4935 	0.042281
41.15 	0.042299 	4941 	0.042062
41.19 	0.044625 	4930 	0.043793
41.23 	0.039482 	4939 	0.039244
41.27 	0.042791 	4931 	0.042078
41.31 	0.040341 	4933 	0.039747
41.35 	0.039895 	4938 	0.039657
41.39 	0.046422 	4933 	0.045710
41.43 	0.041591 	4929 	0.041115
41.47 	0.043443 	4926 	0.042967
41.51 	0.038057 	4940 	0.037582
41.55 	0.040122 	4935 	0.039765
41.59 	0.037908 	4933 	0.037789
41.63 	0.041312 	4938 	0.040956
41.67 	0.041903 	4940 	0.041666
41.71 	0.043981 	4934 	0.043624
41.75 	0.046257 	4929 	0.045781
41.79 	0.039037 	4944 	0.038682
41.83 	0.040584 	4928 	0.040228
41.87 	0.042148 	4935 	0.041673
41.91 	0.037277 	4936 	0.036565
41.95 	0.039140 	4931 	0.038903
41.99 	0.039348 	4905 	0.038631
42.03 	0.042316 	4939 	0.041723
42.07 	0.046587 	4937 	0.046231
42.11 	0.038625 	4945 	0.037796
42.15 	0.042730 	4938 	0.042493
42.19 	0.036064 	4908 	0.035706
42.23 	0.039043 	4892 	0.038445
42.27 	0.037546 	4874 	0.036945
42.31 	0.037693 	4855 	0.037210
42.35 	0.043820 	4838 	0.043093
42.39 	0.036636 	4804 	0.036392
42.43 	0.040067 	4792 	0.039456
42.47 	0.038615 	4765 	0.038123
42.51 	0.039848 	4743 	0.039478
42.55 	0.041844 	4708 	0.041470
42.59 	0.037852 	4729 	0.037604
42.63 	0.037375 	4709 	0.036504
42.67 	0.045260 	4684 	0.044364
42.71 	0.040746 	4663 	0.040621
42.75 	0.036604 	4617 	0.035716
42.79 	0.037538 	4582 	0.037283
42.83 	0.036817 	4536 	0.036558
42.87 	0.043343 	4499 	0.042562
42.91 	0.036580 	4456 	0.036448
42.95 	0.041667 	4416 	0.040982
42.99 	0.039453 	4385 	0.038918
43.03 	0.042696 	4333 	0.041749
43.07 	0.040503 	4296 	0.040230
43.11 	0.035018 	4255 	0.034605
43.15 	0.035426 	4206 	0.034868
43.19 	0.042918 	4194 	0.042499
43.23 	0.040202 	4154 	0.039920
43.27 	0.040195 	4105 	0.039481
43.31 	0.040206 	4079 	0.039488
43.35 	0.038194 	4032 	0.037759
43.39 	0.038731 	4002 	0.038438
43.43 	0.039899 	3960 	0.039751
43.47 	0.035705 	3921 	0.035556
43.51 	0.034047 	3877 	0.033594
43.55 	0.046896 	2964 	0.046303
43.59 	0.045819 	1746 	0.045484
43.63 	0.041958 	1001 	0.041373
43.67 	0.041833 	502 	0.041833
43.71 	0.020921 	239 	0.020921
43.75 	0.125000 	16 	0.125000