File: Example_Data/25SC_s1_0047.001.dat
#F C:\frames\spec\25SC_s1_0047.001
#C title =s:47 frm:1 25SC_s1
#C wavelength =0.15406

#S 1  fr_average C:\frames\spec\25SC_s1_0047.001 C:\win32app\speccom\mask.axs chi 0 180 0 360 0.02
#C 2 theta =0.000000 to 180 deg
#C   q   =0.000000 to 81.568 nm^-1
#C  chi  =0.000000 to 360 deg
#C collumns:
#C  1 position (2theta or chi in degrees)
#C  2 average intensity (sum of all counts in the region divided with number of pixels)
#C  3 Number of pixels in region)
#C  4 error (sum of sqrt(intensity) for all pixels divided by number)
#N 4
#L TTh  Int  N_pix  Err
32.99 	0.049180 	61 	0.049180
33.03 	0.064702 	1391 	0.063438
33.07 	0.064878 	2050 	0.064592
33.11 	0.069407 	2579 	0.067723
33.15 	0.059020 	2999 	0.057457
33.19 	0.061341 	3342 	0.059909
33.23 	0.062731 	3523 	0.061567
33.27 	0.057576 	3630 	0.056258
33.31 	0.061202 	3660 	0.059762
33.35 	0.061451 	3694 	0.060658
33.39 	0.064629 	3729 	0.062875
33.43 	0.061420 	3761 	0.059032
33.47 	0.056872 	3798 	0.055638
33.51 	0.059240 	3815 	0.058472
33.55 	0.055946 	3843 	0.055031
33.59 	0.059536 	3880 	0.058177
33.63 	0.056392 	3919 	0.055645
33.67 	0.056146 	3954 	0.054812
33.71 	0.060377 	3975 	0.059788
33.75 	0.054514 	3999 	0.054221
33.79 	0.052215 	4041 	0.051321
33.83 	0.057037 	4050 	0.056603
33.87 	0.057650 	4111 	0.056938
33.91 	0.054471 	4149 	0.053483
33.95 	0.051423 	4181 	0.050582
33.99 	0.063095 	4200 	0.062398
34.03 	0.058907 	4244 	0.058217
34.07 	0.062793 	4268 	0.061832
34.11 	0.059042 	4302 	0.057817
34.15 	0.061187 	4331 	0.060240
34.19 	0.055479 	4362 	0.053711
34.23 	0.061006 	4393 	0.060339
34.27 	0.056536 	4422 	0.055454
34.31 	0.058546 	4458 	0.057364
34.35 	0.060214 	4484 	0.059278
34.39 	0.056641 	4502 	0.056251
34.43 	0.052214 	4539 	0.051569
34.47 	0.053571 	4592 	0.052678
34.51 	0.057317 	4606 	0.056151
34.55 	0.055568 	4643 	0.054684
34.59 	0.055829 	4675 	0.054701
34.63 	0.056900 	4710 	0.056278
34.67 	0.051044 	4741 	0.050550
34.71 	0.058749 	4766 	0.057766
34.75 	0.053661 	4808 	0.052686
34.79 	0.058665 	4824 	0.057674
34.83 	0.061909 	4862 	0.061186
34.87 	0.061216 	4868 	0.060494
34.91 	0.058787 	4882 	0.057947
34.95 	0.055828 	4890 	0.054990
34.99 	0.054727 	4897 	0.053172
35.03 	0.060287 	4943 	0.059576
35.07 	0.059312 	4940 	0.058126
35.11 	0.057813 	4947 	0.056491
35.15 	0.059145 	4937 	0.058433
35.19 	0.051801 	4942 	0.051327
35.23 	0.052781 	4945 	0.051103
35.27 	0.057195 	4948 	0.056248
35.31 	0.056355 	4933 	0.055643
35.35 	0.059895 	4942 	0.059184
35.39 	0.055612 	4945 	0.054664
35.43 	0.059193 	4933 	0.057887
35.47 	0.056175 	4931 	0.054868
35.51 	0.057653 	4926 	0.056464
35.55 	0.058443 	4945 	0.057377
35.59 	0.058847 	4945 	0.057663
35.63 	0.056443 	4943 	0.055732
35.67 	0.057264 	4942 	0.056197
35.71 	0.053879 	4937 	0.053286
35.75 	0.055567 	4931 	0.054735
35.79 	0.057380 	4932 	0.056430
35.83 	0.059038 	4946 	0.057972
35.87 	0.058095 	4923 	0.057242
35.91 	0.048305 	4927 	0.047830
35.95 	0.054505 	4917 	0.053790
35.99 	0.062361 	4939 	0.060819
36.03 	0.053409 	4943 	0.052816
36.07 	0.057906 	4939 	0.057076
36.11 	0.065328 	4929 	0.063664
36.15 	0.057502 	4939 	0.056533
36.19 	0.058502 	4940 	0.057198
36.23 	0.051874 	4935 	0.050925
36.27 	0.060102 	4925 	0.059388
36.31 	0.059050 	4928 	0.058099
36.35 	0.056198 	4929 	0.055604
36.39 	0.056493 	4921 	0.056135
36.43 	0.055804 	4928 	0.054853
36.47 	0.058347 	4936 	0.057635
36.51 	0.059801 	4933 	0.058376
36.55 	0.063933 	4927 	0.063101
36.59 	0.060134 	4939 	0.058809
36.63 	0.060637 	4931 	0.059805
36.67 	0.056389 	4930 	0.055082
36.71 	0.055680 	4921 	0.054846
36.75 	0.056432 	4944 	0.055721
36.79 	0.059744 	4921 	0.058792
36.83 	0.054730 	4915 	0.054135
36.87 	0.057039 	4944 	0.056328
36.91 	0.055859 	4941 	0.054792
36.95 	0.054733 	4933 	0.053170
36.99 	0.056332 	4935 	0.055976
37.03 	0.052396 	4924 	0.051425
37.07 	0.060993 	4935 	0.059905
37.11 	0.057143 	4935 	0.055956
37.15 	0.060705 	4909 	0.059631
37.19 	0.058071 	4925 	0.057238
37.23 	0.057137 	4918 	0.055946
37.27 	0.055170 	4894 	0.054451
37.31 	0.052685 	4935 	0.052091
37.35 	0.056501 	4938 	0.056145
37.39 	0.053336 	4931 	0.052386
37.43 	0.050892 	4932 	0.050180
37.47 	0.054981 	4929 	0.053792
37.51 	0.050679 	4933 	0.049967
37.55 	0.055781 	4930 	0.053999
37.59 	0.056968 	4915 	0.055777
37.63 	0.055092 	4919 	0.054021
37.67 	0.053426 	4904 	0.052709
37.71 	0.053358 	4929 	0.052882
37.75 	0.060526 	4940 	0.058866
37.79 	0.051927 	4930 	0.051214
37.83 	0.048171 	4920 	0.047694
37.87 	0.056489 	4939 	0.055284
37.91 	0.051318 	4930 	0.050724
37.95 	0.058728 	4921 	0.058371
37.99 	0.058225 	4912 	0.057132
38.03 	0.050519 	4909 	0.050161
38.07 	0.048890 	4909 	0.048054
38.11 	0.064438 	4935 	0.063488
38.15 	0.064660 	4918 	0.063450
38.19 	0.066734 	4930 	0.064714
38.23 	0.064399 	4938 	0.063450
38.27 	0.059635 	4930 	0.058566
38.31 	0.065151 	4927 	0.063943
38.35 	0.067573 	4928 	0.066028
38.39 	0.073335 	4909 	0.072122
38.43 	0.068348 	4916 	0.067395
38.47 	0.079886 	4907 	0.077856
38.51 	0.078873 	4932 	0.077210
38.55 	0.070502 	4936 	0.068703
38.59 	0.072299 	4924 	0.070514
38.63 	0.066409 	4924 	0.065934
38.67 	0.062184 	4937 	0.061353
38.71 	0.059708 	4924 	0.058042
38.75 	0.059874 	4927 	0.059161
38.79 	0.057965 	4934 	0.057253
38.83 	0.053060 	4919 	0.052345
38.87 	0.046630 	4911 	0.045914
38.91 	0.055272 	4903 	0.054794
38.95 	0.050020 	4918 	0.049663
38.99 	0.052866 	4937 	0.052392
39.03 	0.045805 	4934 	0.045330
39.07 	0.047522 	4924 	0.046571
39.11 	0.043399 	4931 	0.042449
39.15 	0.048016 	4915 	0.047063
39.19 	0.046573 	4917 	0.045977
39.23 	0.041218 	4925 	0.041218
39.27 	0.047454 	4910 	0.046619
39.31 	0.043407 	4884 	0.043167
39.35 	0.040527 	4935 	0.040052
39.39 	0.041185 	4929 	0.041185
39.43 	0.041760 	4933 	0.041285
39.47 	0.045298 	4923 	0.044584
39.51 	0.048538 	4924 	0.048181
39.55 	0.042895 	4919 	0.042538
39.59 	0.039699 	4912 	0.039460
39.63 	0.040634 	4922 	0.040277
39.67 	0.047629 	4913 	0.047152
39.71 	0.045352 	4895 	0.043916
39.75 	0.046672 	4928 	0.046315
39.79 	0.047503 	4926 	0.047027
39.83 	0.042156 	4934 	0.041781
39.87 	0.048731 	4925 	0.048255
39.91 	0.045510 	4922 	0.044677
39.95 	0.043744 	4915 	0.042790
39.99 	0.044201 	4932 	0.043607
40.03 	0.037744 	4928 	0.037268
40.07 	0.043266 	4923 	0.042909
40.11 	0.044548 	4916 	0.044310
40.15 	0.040098 	4913 	0.039601
40.19 	0.043822 	4929 	0.043347
40.23 	0.041768 	4932 	0.041412
40.27 	0.041523 	4937 	0.041286
40.31 	0.042114 	4939 	0.041165
40.35 	0.045131 	4919 	0.044655
40.39 	0.041979 	4931 	0.041623
40.43 	0.041853 	4922 	0.041020
40.47 	0.037414 	4918 	0.037037
40.51 	0.042666 	4922 	0.042309
40.55 	0.039731 	4908 	0.039134
40.59 	0.049018 	4937 	0.048068
40.63 	0.047059 	4930 	0.045989
40.67 	0.042174 	4932 	0.042055
40.71 	0.040754 	4932 	0.040279
40.75 	0.047049 	4931 	0.046099
40.79 	0.042242 	4924 	0.042004
40.83 	0.047078 	4928 	0.046721
40.87 	0.041599 	4928 	0.041242
40.91 	0.042048 	4923 	0.041691
40.95 	0.041115 	4913 	0.040400
40.99 	0.041836 	4924 	0.041241
41.03 	0.043017 	4905 	0.042420
41.07 	0.044625 	4930 	0.043555
41.11 	0.042148 	4935 	0.041554
41.15 	0.041085 	4941 	0.040966
41.19 	0.038945 	4930 	0.038351
41.23 	0.041304 	4939 	0.040829
41.27 	0.042182 	4931 	0.041588
41.31 	0.038313 	4933 	0.037838
41.35 	0.035237 	4938 	0.035000
41.39 	0.037705 	4933 	0.037092
41.43 	0.038953 	4929 	0.038715
41.47 	0.041210 	4926 	0.040972
41.51 	0.035223 	4940 	0.034986
41.55 	0.039311 	4935 	0.039192
41.59 	0.040138 	4933 	0.039425
41.63 	0.039692 	4938 	0.039218
41.67 	0.037449 	4940 	0.037212
41.71 	0.040535 	4934 	0.039941
41.75 	0.039765 	4929 	0.039052
41.79 	0.039442 	4944 	0.039205
41.83 	0.038149 	4928 	0.037674
41.87 	0.037285 	4935 	0.036573
41.91 	0.042950 	4936 	0.042831
41.95 	0.037923 	4931 	0.037211
41.99 	0.047910 	4905 	0.046955
42.03 	0.034825 	4939 	0.034113
42.07 	0.040916 	4937 	0.040204
42.11 	0.042872 	4945 	0.041904
42.15 	0.034832 	4938 	0.034239
42.19 	0.041972 	4908 	0.041734
42.23 	0.036999 	4892 	0.036400
42.27 	0.039803 	4874 	0.039442
42.31 	0.038723 	4855 	0.038100
42.35 	0.038652 	4838 	0.038289
42.39 	0.039759 	4804 	0.039149
42.43 	0.039649 	4792 	0.038671
42.47 	0.036936 	4765 	0.036813
42.51 	0.037107 	4743 	0.036737
42.55 	0.037596 	4708 	0.037098
42.59 	0.041446 	4729 	0.040951
42.63 	0.039711 	4709 	0.039214
42.67 	0.037788 	4684 	0.037663
42.71 	0.043320 	4663 	0.042671
42.75 	0.037903 	4617 	0.037269
42.79 	0.033610 	4582 	0.033354
42.83 	0.035053 	4536 	0.034795
42.87 	0.040231 	4499 	0.039580
42.91 	0.039048 	4456 	0.038654
42.95 	0.038043 	4416 	0.037380
42.99 	0.036260 	4385 	0.036126
43.03 	0.037387 	4333 	0.037117
43.07 	0.042365 	4296 	0.041956
43.11 	0.030787 	4255 	0.030650
43.15 	0.036614 	4206 	0.036614
43.19 	0.038150 	4194 	0.037870
43.23 	0.040684 	4154 	0.039979
43.27 	0.040926 	4105 	0.040783
43.31 	0.038000 	4079 	0.037712
43.35 	0.040179 	4032 	0.039307
43.39 	0.040480 	4002 	0.040041
43.43 	0.031061 	3960 	0.030913
43.47 	0.036725 	3921 	0.035804
43.51 	0.038174 	3877 	0.038023
43.55 	0.035762 	2964 	0.035170
43.59 	0.038946 	1746 	0.038946
43.63 	0.033966 	1001 	0.033966
43.67 	0.039841 	502 	0.039841
43.71 	0.041841 	239 	0.041841
43.75 	0.000000 	16 	0.000000