File: Example_Data/25SC_s1_0036.002.dat
#F C:\frames\spec\25SC_s1_0036.002
#C title =s:36 frm:2 25SC_s1
#C wavelength =0.15406

#S 1  fr_average C:\frames\spec\25SC_s1_0036.002 C:\win32app\speccom\mask.axs chi 0 180 0 360 0.02
#C 2 theta =0.000000 to 180 deg
#C   q   =0.000000 to 81.568 nm^-1
#C  chi  =0.000000 to 360 deg
#C collumns:
#C  1 position (2theta or chi in degrees)
#C  2 average intensity (sum of all counts in the region divided with number of pixels)
#C  3 Number of pixels in region)
#C  4 error (sum of sqrt(intensity) for all pixels divided by number)
#N 4
#L TTh  Int  N_pix  Err
32.99 	0.065574 	61 	0.065574
33.03 	0.059669 	1391 	0.056721
33.07 	0.062927 	2050 	0.061498
33.11 	0.058550 	2579 	0.056960
33.15 	0.057352 	2999 	0.057157
33.19 	0.056553 	3342 	0.055501
33.23 	0.058189 	3523 	0.057358
33.27 	0.061433 	3630 	0.060464
33.31 	0.057923 	3660 	0.057443
33.35 	0.054413 	3694 	0.053778
33.39 	0.058461 	3729 	0.057047
33.43 	0.060356 	3761 	0.059578
33.47 	0.059242 	3798 	0.058599
33.51 	0.064744 	3815 	0.064284
33.55 	0.062191 	3843 	0.060972
33.59 	0.054124 	3880 	0.052161
33.63 	0.056647 	3919 	0.055750
33.67 	0.063227 	3954 	0.061597
33.71 	0.051321 	3975 	0.050731
33.75 	0.057514 	3999 	0.056489
33.79 	0.055432 	4041 	0.054272
33.83 	0.057531 	4050 	0.056084
33.87 	0.054245 	4111 	0.053532
33.91 	0.057363 	4149 	0.056234
33.95 	0.058359 	4181 	0.057379
33.99 	0.053571 	4200 	0.052456
34.03 	0.058435 	4244 	0.057607
34.07 	0.054358 	4268 	0.053078
34.11 	0.058577 	4302 	0.057352
34.15 	0.049642 	4331 	0.048695
34.19 	0.062586 	4362 	0.061109
34.23 	0.063510 	4393 	0.062443
34.27 	0.056309 	4422 	0.054985
34.31 	0.053387 	4458 	0.052862
34.35 	0.058430 	4484 	0.056710
34.39 	0.057974 	4502 	0.056933
34.43 	0.057502 	4539 	0.056340
34.47 	0.060540 	4592 	0.059243
34.51 	0.056665 	4606 	0.056284
34.55 	0.058583 	4643 	0.057826
34.59 	0.052406 	4675 	0.051655
34.63 	0.065605 	4710 	0.064092
34.67 	0.056950 	4741 	0.056065
34.71 	0.057491 	4766 	0.056876
34.75 	0.049709 	4808 	0.048978
34.79 	0.053690 	4824 	0.052354
34.83 	0.055738 	4862 	0.055136
34.87 	0.055875 	4868 	0.054551
34.91 	0.058583 	4882 	0.057383
34.95 	0.051125 	4890 	0.050526
34.99 	0.054319 	4897 	0.053840
35.03 	0.060894 	4943 	0.059709
35.07 	0.055061 	4940 	0.053756
35.11 	0.054579 	4947 	0.053868
35.15 	0.047600 	4937 	0.046888
35.19 	0.057062 	4942 	0.056469
35.23 	0.053589 	4945 	0.052760
35.27 	0.053557 	4948 	0.052373
35.31 	0.058382 	4933 	0.057670
35.35 	0.057871 	4942 	0.056805
35.39 	0.059656 	4945 	0.057998
35.43 	0.052301 	4933 	0.051707
35.47 	0.063070 	4931 	0.062358
35.51 	0.057450 	4926 	0.056618
35.55 	0.053387 	4945 	0.052676
35.59 	0.051972 	4945 	0.050906
35.63 	0.053004 	4943 	0.052056
35.67 	0.053217 	4942 	0.052506
35.71 	0.053879 	4937 	0.053286
35.75 	0.057595 	4931 	0.056763
35.79 	0.055961 	4932 	0.054991
35.83 	0.054590 	4946 	0.053761
35.87 	0.059720 	4923 	0.058530
35.91 	0.046276 	4927 	0.045324
35.95 	0.056539 	4917 	0.055804
35.99 	0.054667 	4939 	0.054074
36.03 	0.054016 	4943 	0.052693
36.07 	0.058919 	4939 	0.057575
36.11 	0.053358 	4929 	0.052882
36.15 	0.052440 	4939 	0.051610
36.19 	0.056680 	4940 	0.055139
36.23 	0.049645 	4935 	0.048914
36.27 	0.059086 	4925 	0.058373
36.31 	0.060674 	4928 	0.059347
36.35 	0.055184 	4929 	0.054114
36.39 	0.053241 	4921 	0.052289
36.43 	0.054383 	4928 	0.053789
36.47 	0.049838 	4936 	0.049126
36.51 	0.058180 	4933 	0.057230
36.55 	0.053785 	4927 	0.052577
36.59 	0.049605 	4939 	0.049487
36.63 	0.053133 	4931 	0.052896
36.67 	0.058418 	4930 	0.057467
36.71 	0.052428 	4921 	0.051476
36.75 	0.052387 	4944 	0.051676
36.79 	0.052225 	4921 	0.051868
36.83 	0.058393 	4915 	0.057558
36.87 	0.056634 	4944 	0.056160
36.91 	0.054038 	4941 	0.052852
36.95 	0.052909 	4933 	0.052315
36.99 	0.052077 	4935 	0.051009
37.03 	0.054021 	4924 	0.053069
37.07 	0.050861 	4935 	0.050030
37.11 	0.054914 	4935 	0.053727
37.15 	0.055001 	4909 	0.054166
37.19 	0.046294 	4925 	0.045581
37.23 	0.052257 	4918 	0.052019
37.27 	0.052922 	4894 	0.052443
37.31 	0.054509 	4935 	0.054034
37.35 	0.049818 	4938 	0.049343
37.39 	0.055972 	4931 	0.055378
37.43 	0.052311 	4932 	0.051955
37.47 	0.043822 	4929 	0.043347
37.51 	0.053517 	4933 	0.053280
37.55 	0.053550 	4930 	0.052837
37.59 	0.050865 	4915 	0.050030
37.63 	0.049807 	4919 	0.048735
37.67 	0.051183 	4904 	0.049988
37.71 	0.052343 	4929 	0.051116
37.75 	0.050810 	4940 	0.049387
37.79 	0.053144 	4930 	0.052312
37.83 	0.053049 	4920 	0.052215
37.87 	0.053655 	4939 	0.052824
37.91 	0.049087 	4930 	0.048731
37.95 	0.052022 	4921 	0.051189
37.99 	0.048656 	4912 	0.047941
38.03 	0.054594 	4909 	0.053878
38.07 	0.055001 	4909 	0.054046
38.11 	0.049645 	4935 	0.048933
38.15 	0.059170 	4918 	0.058098
38.19 	0.053550 	4930 	0.052361
38.23 	0.056298 	4938 	0.055567
38.27 	0.058621 	4930 	0.057651
38.31 	0.059265 	4927 	0.058413
38.35 	0.065341 	4928 	0.063914
38.39 	0.058464 	4909 	0.057390
38.43 	0.063670 	4916 	0.062359
38.47 	0.064194 	4907 	0.063000
38.51 	0.068127 	4932 	0.066939
38.55 	0.065235 	4936 	0.064404
38.59 	0.060723 	4924 	0.059533
38.63 	0.064379 	4924 	0.063546
38.67 	0.056309 	4937 	0.055598
38.71 	0.052803 	4924 	0.051851
38.75 	0.051553 	4927 	0.051196
38.79 	0.061411 	4934 	0.059867
38.83 	0.052246 	4919 	0.051294
38.87 	0.052942 	4911 	0.052346
38.91 	0.047522 	4903 	0.046566
38.95 	0.042294 	4918 	0.041698
38.99 	0.048613 	4937 	0.047901
39.03 	0.049858 	4934 	0.049027
39.07 	0.043867 	4924 	0.043510
39.11 	0.046644 	4931 	0.046168
39.15 	0.044964 	4915 	0.044249
39.19 	0.044743 	4917 	0.043790
39.23 	0.046091 	4925 	0.045616
39.27 	0.048065 	4910 	0.047588
39.31 	0.044226 	4884 	0.043746
39.35 	0.049443 	4935 	0.048968
39.39 	0.044634 	4929 	0.043901
39.43 	0.051490 	4933 	0.050896
39.47 	0.039610 	4923 	0.038896
39.51 	0.042648 	4924 	0.042529
39.55 	0.045741 	4919 	0.045622
39.59 	0.043363 	4912 	0.042251
39.63 	0.048964 	4922 	0.048488
39.67 	0.046407 	4913 	0.045692
39.71 	0.044331 	4895 	0.044211
39.75 	0.044846 	4928 	0.044489
39.79 	0.044864 	4926 	0.044745
39.83 	0.045197 	4934 	0.044840
39.87 	0.047513 	4925 	0.046442
39.91 	0.044900 	4922 	0.043948
39.95 	0.044964 	4915 	0.044607
39.99 	0.040552 	4932 	0.039958
40.03 	0.037946 	4928 	0.037333
40.07 	0.043063 	4923 	0.042349
40.11 	0.045159 	4916 	0.044920
40.15 	0.049054 	4913 	0.048696
40.19 	0.050923 	4929 	0.050448
40.23 	0.043187 	4932 	0.042475
40.27 	0.043144 	4937 	0.042550
40.31 	0.043734 	4939 	0.043141
40.35 	0.047367 	4919 	0.046395
40.39 	0.046846 	4931 	0.046609
40.43 	0.041040 	4922 	0.040683
40.47 	0.039244 	4918 	0.038767
40.51 	0.039618 	4922 	0.039023
40.55 	0.039731 	4908 	0.039254
40.59 	0.042131 	4937 	0.041063
40.63 	0.041582 	4930 	0.040988
40.67 	0.046026 	4932 	0.045076
40.71 	0.039538 	4932 	0.039181
40.75 	0.042385 	4931 	0.041910
40.79 	0.042851 	4924 	0.042375
40.83 	0.041396 	4928 	0.040921
40.87 	0.040990 	4928 	0.040396
40.91 	0.045298 	4923 	0.045060
40.95 	0.044372 	4913 	0.044014
40.99 	0.038790 	4924 	0.038314
41.03 	0.037717 	4905 	0.037478
41.07 	0.036714 	4930 	0.036476
41.11 	0.034245 	4935 	0.034008
41.15 	0.043513 	4941 	0.043158
41.19 	0.041988 	4930 	0.041394
41.23 	0.041506 	4939 	0.041032
41.27 	0.044818 	4931 	0.044462
41.31 	0.038922 	4933 	0.038684
41.35 	0.038072 	4938 	0.037835
41.39 	0.038111 	4933 	0.037398
41.43 	0.037533 	4929 	0.037176
41.47 	0.035729 	4926 	0.035372
41.51 	0.040688 	4940 	0.039977
41.55 	0.039311 	4935 	0.038718
41.59 	0.042570 	4933 	0.042095
41.63 	0.041312 	4938 	0.041075
41.67 	0.043320 	4940 	0.042964
41.71 	0.039724 	4934 	0.039131
41.75 	0.038953 	4929 	0.038597
41.79 	0.038026 	4944 	0.037552
41.83 	0.038961 	4928 	0.038367
41.87 	0.040122 	4935 	0.039409
41.91 	0.042342 	4936 	0.042105
41.95 	0.038126 	4931 	0.037770
41.99 	0.043425 	4905 	0.043186
42.03 	0.038267 	4939 	0.037674
42.07 	0.041928 	4937 	0.041454
42.11 	0.037614 	4945 	0.037140
42.15 	0.036655 	4938 	0.036417
42.19 	0.040139 	4908 	0.039780
42.23 	0.043132 	4892 	0.042653
42.27 	0.036110 	4874 	0.036110
42.31 	0.035015 	4855 	0.034774
42.35 	0.038652 	4838 	0.038168
42.39 	0.042048 	4804 	0.041682
42.43 	0.038815 	4792 	0.038448
42.47 	0.037566 	4765 	0.036951
42.51 	0.035210 	4743 	0.034963
42.55 	0.036746 	4708 	0.036622
42.59 	0.033834 	4729 	0.033462
42.63 	0.042897 	4709 	0.042772
42.67 	0.035226 	4684 	0.034726
42.71 	0.040103 	4663 	0.039475
42.75 	0.039203 	4617 	0.038949
42.79 	0.035356 	4582 	0.035100
42.83 	0.033069 	4536 	0.032552
42.87 	0.033118 	4499 	0.033118
42.91 	0.036355 	4456 	0.036093
42.95 	0.035553 	4416 	0.035155
42.99 	0.041733 	4385 	0.040932
43.03 	0.036926 	4333 	0.036791
43.07 	0.034683 	4296 	0.034547
43.11 	0.040658 	4255 	0.040107
43.15 	0.040181 	4206 	0.040181
43.19 	0.033381 	4194 	0.032822
43.23 	0.037313 	4154 	0.037172
43.27 	0.037759 	4105 	0.037616
43.31 	0.035548 	4079 	0.035261
43.35 	0.040179 	4032 	0.039888
43.39 	0.037481 	4002 	0.037335
43.43 	0.037626 	3960 	0.037330
43.47 	0.036215 	3921 	0.035618
43.51 	0.036368 	3877 	0.035915
43.55 	0.047908 	2964 	0.047315
43.59 	0.040664 	1746 	0.040329
43.63 	0.039960 	1001 	0.039960
43.67 	0.031873 	502 	0.031873
43.71 	0.050209 	239 	0.050209
43.75 	0.062500 	16 	0.062500