File: Example_Data/25SC_s1_0015.000.dat
#F C:\frames\spec\25SC_s1_0015.000
#C title =s:15 frm:0 25SC_s1
#C wavelength =0.15406

#S 1  fr_average C:\frames\spec\25SC_s1_0015.000 C:\win32app\speccom\mask.axs chi 0 180 0 360 0.02
#C 2 theta =0.000000 to 180 deg
#C   q   =0.000000 to 81.568 nm^-1
#C  chi  =0.000000 to 360 deg
#C collumns:
#C  1 position (2theta or chi in degrees)
#C  2 average intensity (sum of all counts in the region divided with number of pixels)
#C  3 Number of pixels in region)
#C  4 error (sum of sqrt(intensity) for all pixels divided by number)
#N 4
#L TTh  Int  N_pix  Err
32.99 	0.049180 	61 	0.039577
33.03 	0.069734 	1391 	0.068050
33.07 	0.061463 	2050 	0.060606
33.11 	0.060101 	2579 	0.058965
33.15 	0.056019 	2999 	0.054651
33.19 	0.061640 	3342 	0.060413
33.23 	0.056202 	3523 	0.055537
33.27 	0.059780 	3630 	0.059134
33.31 	0.062842 	3660 	0.061721
33.35 	0.056578 	3694 	0.055468
33.39 	0.062483 	3729 	0.060598
33.43 	0.059825 	3761 	0.059357
33.47 	0.060821 	3798 	0.059742
33.51 	0.055832 	3815 	0.054886
33.55 	0.059849 	3843 	0.058300
33.59 	0.067010 	3880 	0.065174
33.63 	0.063537 	3919 	0.062640
33.67 	0.061204 	3954 	0.060167
33.71 	0.065409 	3975 	0.064377
33.75 	0.060765 	3999 	0.060033
33.79 	0.055927 	4041 	0.054308
33.83 	0.062716 	4050 	0.061270
33.87 	0.060569 	4111 	0.059572
33.91 	0.059532 	4149 	0.058544
33.95 	0.059316 	4181 	0.058195
33.99 	0.060238 	4200 	0.058541
34.03 	0.059378 	4244 	0.058136
34.07 	0.061621 	4268 	0.061072
34.11 	0.056020 	4302 	0.055340
34.15 	0.055876 	4331 	0.054929
34.19 	0.057542 	4362 	0.056199
34.23 	0.058275 	4393 	0.057074
34.27 	0.050204 	4422 	0.049674
34.31 	0.058771 	4458 	0.057588
34.35 	0.060214 	4484 	0.059561
34.39 	0.063083 	4502 	0.062563
34.43 	0.054638 	4539 	0.053713
34.47 	0.064895 	4592 	0.063875
34.51 	0.055797 	4606 	0.055161
34.55 	0.056644 	4643 	0.056140
34.59 	0.051123 	4675 	0.050622
34.63 	0.058174 	4710 	0.057552
34.67 	0.060114 	4741 	0.059125
34.71 	0.057491 	4766 	0.056630
34.75 	0.058444 	4808 	0.057591
34.79 	0.060323 	4824 	0.058745
34.83 	0.052653 	4862 	0.051689
34.87 	0.052383 	4868 	0.051781
34.91 	0.052028 	4882 	0.051188
34.95 	0.066667 	4890 	0.064870
34.99 	0.057790 	4897 	0.056834
35.03 	0.050779 	4943 	0.050186
35.07 	0.052834 	4940 	0.051965
35.11 	0.059026 	4947 	0.058197
35.15 	0.058132 	4937 	0.057045
35.19 	0.054027 	4942 	0.052841
35.23 	0.057230 	4945 	0.056993
35.27 	0.055174 	4948 	0.054463
35.31 	0.053720 	4933 	0.052176
35.35 	0.057264 	4942 	0.056316
35.39 	0.052983 	4945 	0.052035
35.43 	0.058382 	4933 	0.056957
35.47 	0.056581 	4931 	0.055987
35.51 	0.055420 	4926 	0.054231
35.55 	0.062083 	4945 	0.060405
35.59 	0.060061 	4945 	0.058521
35.63 	0.058669 	4943 	0.057247
35.67 	0.055645 	4942 	0.054816
35.71 	0.055094 	4937 	0.053908
35.75 	0.055770 	4931 	0.055057
35.79 	0.066504 	4932 	0.065198
35.83 	0.060655 	4946 	0.059708
35.87 	0.064189 	4923 	0.063237
35.91 	0.056424 	4927 	0.055235
35.95 	0.056132 	4917 	0.054940
35.99 	0.067220 	4939 	0.065322
36.03 	0.059680 	4943 	0.058851
36.07 	0.056489 	4939 	0.055778
36.11 	0.059241 	4929 	0.058409
36.15 	0.059324 	4939 	0.058731
36.19 	0.065385 	4940 	0.064555
36.23 	0.058561 	4935 	0.058086
36.27 	0.056650 	4925 	0.056055
36.31 	0.058036 	4928 	0.057085
36.35 	0.059647 	4929 	0.058221
36.39 	0.059541 	4921 	0.058588
36.43 	0.053774 	4928 	0.053299
36.47 	0.054903 	4936 	0.054428
36.51 	0.055950 	4933 	0.054743
36.55 	0.058453 	4927 	0.057740
36.59 	0.061956 	4939 	0.060750
36.63 	0.059623 	4931 	0.057841
36.67 	0.060852 	4930 	0.060139
36.71 	0.062589 	4921 	0.061279
36.75 	0.056837 	4944 	0.055889
36.79 	0.051006 	4921 	0.050292
36.83 	0.063683 	4915 	0.062252
36.87 	0.057848 	4944 	0.056288
36.91 	0.061526 	4941 	0.060578
36.95 	0.064464 	4933 	0.063376
36.99 	0.057143 	4935 	0.055718
37.03 	0.057067 	4924 	0.055283
37.07 	0.059574 	4935 	0.058981
37.11 	0.055724 	4935 	0.054775
37.15 	0.066612 	4909 	0.064803
37.19 	0.061726 	4925 	0.061012
37.23 	0.063237 	4918 	0.062522
37.27 	0.052105 	4894 	0.051626
37.31 	0.056940 	4935 	0.056109
37.35 	0.054070 	4938 	0.053359
37.39 	0.065098 	4931 	0.063554
37.43 	0.059813 	4932 	0.058745
37.47 	0.063096 	4929 	0.062264
37.51 	0.055950 	4933 	0.054743
37.55 	0.052130 	4930 	0.051536
37.59 	0.063479 	4915 	0.061811
37.63 	0.057939 	4919 	0.057224
37.67 	0.058524 	4904 	0.057688
37.71 	0.057415 	4929 	0.056583
37.75 	0.055466 	4940 	0.054636
37.79 	0.057809 	4930 	0.057453
37.83 	0.056098 	4920 	0.055264
37.87 	0.060944 	4939 	0.059639
37.91 	0.059838 	4930 	0.059244
37.95 	0.058728 	4921 	0.057418
37.99 	0.052932 	4912 	0.051958
38.03 	0.055205 	4909 	0.054250
38.07 	0.055612 	4909 	0.054658
38.11 	0.047214 	4935 	0.046264
38.15 	0.057747 	4918 	0.057271
38.19 	0.059229 	4930 	0.057903
38.23 	0.058121 	4938 	0.056934
38.27 	0.060852 	4930 	0.059307
38.31 	0.054597 	4927 	0.053646
38.35 	0.059050 	4928 	0.057386
38.39 	0.060501 	4909 	0.059666
38.43 	0.060008 	4916 	0.058459
38.47 	0.068881 	4907 	0.067329
38.51 	0.060827 	4932 	0.059877
38.55 	0.068071 	4936 	0.067003
38.59 	0.072502 	4924 	0.071669
38.63 	0.072705 	4924 	0.070187
38.67 	0.079198 	4937 	0.077537
38.71 	0.077782 	4924 	0.076712
38.75 	0.090116 	4927 	0.087976
38.79 	0.076611 	4934 	0.075899
38.83 	0.074405 	4919 	0.072857
38.87 	0.073508 	4911 	0.072554
38.91 	0.068937 	4903 	0.067862
38.95 	0.065474 	4918 	0.063330
38.99 	0.061171 	4937 	0.059866
39.03 	0.061613 	4934 	0.060189
39.07 	0.054427 	4924 	0.053595
39.11 	0.051105 	4931 	0.050036
39.15 	0.050254 	4915 	0.049539
39.19 	0.050234 	4917 	0.049638
39.23 	0.045888 	4925 	0.045413
39.27 	0.051731 	4910 	0.050777
39.31 	0.048935 	4884 	0.048216
39.35 	0.045187 	4935 	0.044475
39.39 	0.052140 	4929 	0.051546
39.43 	0.047841 	4933 	0.047129
39.47 	0.047938 	4923 	0.047581
39.51 	0.047116 	4924 	0.046521
39.55 	0.047367 	4919 	0.046891
39.59 	0.042956 	4912 	0.042479
39.63 	0.050386 	4922 	0.049553
39.67 	0.042337 	4913 	0.041840
39.71 	0.044127 	4895 	0.043409
39.75 	0.044846 	4928 	0.043657
39.79 	0.050954 	4926 	0.050003
39.83 	0.048642 	4934 	0.048048
39.87 	0.047919 	4925 	0.047086
39.91 	0.045916 	4922 	0.045202
39.95 	0.048830 	4915 	0.048473
39.99 	0.044809 	4932 	0.044216
40.03 	0.050933 	4928 	0.050339
40.07 	0.049563 	4923 	0.049325
40.11 	0.044548 	4916 	0.043476
40.15 	0.043354 	4913 	0.043116
40.19 	0.047474 	4929 	0.047236
40.23 	0.045215 	4932 	0.044621
40.27 	0.044156 	4937 	0.043326
40.31 	0.047783 	4939 	0.047309
40.35 	0.041472 	4919 	0.040996
40.39 	0.045224 	4931 	0.044749
40.43 	0.036977 	4922 	0.036382
40.47 	0.038024 	4918 	0.037547
40.51 	0.049777 	4922 	0.049062
40.55 	0.044214 	4908 	0.043497
40.59 	0.044359 	4937 	0.043647
40.63 	0.042191 	4930 	0.041240
40.67 	0.042174 	4932 	0.041936
40.71 	0.042376 	4932 	0.041782
40.75 	0.040154 	4931 	0.039560
40.79 	0.046913 	4924 	0.046180
40.83 	0.041396 	4928 	0.040564
40.87 	0.045455 	4928 	0.045098
40.91 	0.046516 	4923 	0.045564
40.95 	0.043558 	4913 	0.042604
40.99 	0.038383 	4924 	0.038145
41.03 	0.044444 	4905 	0.044086
41.07 	0.038540 	4930 	0.038064
41.11 	0.044580 	4935 	0.043610
41.15 	0.039263 	4941 	0.038671
41.19 	0.040162 	4930 	0.039687
41.23 	0.041101 	4939 	0.040746
41.27 	0.043196 	4931 	0.042246
41.31 	0.037705 	4933 	0.037112
41.35 	0.043540 	4938 	0.043184
41.39 	0.042165 	4933 	0.041690
41.43 	0.046663 	4929 	0.046187
41.47 	0.041210 	4926 	0.040734
41.51 	0.043320 	4940 	0.042964
41.55 	0.043566 	4935 	0.043448
41.59 	0.044192 	4933 	0.043836
41.63 	0.040705 	4938 	0.040705
41.67 	0.038866 	4940 	0.038629
41.71 	0.042359 	4934 	0.041627
41.75 	0.041185 	4929 	0.041066
41.79 	0.044701 	4944 	0.044108
41.83 	0.042614 	4928 	0.041663
41.87 	0.041337 	4935 	0.041219
41.91 	0.036062 	4936 	0.035231
41.95 	0.042385 	4931 	0.041791
41.99 	0.040571 	4905 	0.040451
42.03 	0.033610 	4939 	0.033491
42.07 	0.045169 	4937 	0.044576
42.11 	0.044894 	4945 	0.044420
42.15 	0.038882 	4938 	0.038151
42.19 	0.037694 	4908 	0.037097
42.23 	0.040883 	4892 	0.040404
42.27 	0.040213 	4874 	0.039252
42.31 	0.038105 	4855 	0.037622
42.35 	0.037826 	4838 	0.037341
42.39 	0.043505 	4804 	0.043262
42.43 	0.040067 	4792 	0.039313
42.47 	0.033578 	4765 	0.033455
42.51 	0.038583 	4743 	0.038089
42.55 	0.041844 	4708 	0.041470
42.59 	0.036160 	4729 	0.035788
42.63 	0.039711 	4709 	0.038965
42.67 	0.039069 	4684 	0.038569
42.71 	0.044178 	4663 	0.043801
42.75 	0.039853 	4617 	0.039345
42.79 	0.038848 	4582 	0.038336
42.83 	0.039683 	4536 	0.039037
42.87 	0.037119 	4499 	0.036989
42.91 	0.036355 	4456 	0.036093
42.95 	0.038949 	4416 	0.038684
42.99 	0.041961 	4385 	0.041427
43.03 	0.036234 	4333 	0.036098
43.07 	0.034451 	4296 	0.034042
43.11 	0.038073 	4255 	0.036696
43.15 	0.036377 	4206 	0.036237
43.19 	0.037434 	4194 	0.037015
43.23 	0.036351 	4154 	0.035927
43.27 	0.041413 	4105 	0.041128
43.31 	0.036038 	4079 	0.035320
43.35 	0.035714 	4032 	0.034988
43.39 	0.039730 	4002 	0.039437
43.43 	0.038131 	3960 	0.037367
43.47 	0.037490 	3921 	0.037341
43.51 	0.036368 	3877 	0.035915
43.55 	0.039136 	2964 	0.038543
43.59 	0.034937 	1746 	0.034937
43.63 	0.039960 	1001 	0.039960
43.67 	0.025896 	502 	0.025896
43.71 	0.033473 	239 	0.033473
43.75 	0.000000 	16 	0.000000