File: Example_Data/25SC_s1_0006.003.dat
#F C:\frames\spec\25SC_s1_0006.003
#C title =s:6 frm:3 25SC_s1
#C wavelength =0.15406

#S 1  fr_average C:\frames\spec\25SC_s1_0006.003 C:\win32app\speccom\mask.axs chi 0 180 0 360 0.02
#C 2 theta =0.000000 to 180 deg
#C   q   =0.000000 to 81.568 nm^-1
#C  chi  =0.000000 to 360 deg
#C collumns:
#C  1 position (2theta or chi in degrees)
#C  2 average intensity (sum of all counts in the region divided with number of pixels)
#C  3 Number of pixels in region)
#C  4 error (sum of sqrt(intensity) for all pixels divided by number)
#N 4
#L TTh  Int  N_pix  Err
32.99 	0.016393 	61 	0.016393
33.03 	0.057513 	1391 	0.056670
33.07 	0.066341 	2050 	0.066056
33.11 	0.061264 	2579 	0.060356
33.15 	0.055685 	2999 	0.054904
33.19 	0.059246 	3342 	0.057668
33.23 	0.057621 	3523 	0.056790
33.27 	0.055372 	3630 	0.054538
33.31 	0.063115 	3660 	0.061834
33.35 	0.060910 	3694 	0.059482
33.39 	0.066774 	3729 	0.065674
33.43 	0.064345 	3761 	0.063099
33.47 	0.058715 	3798 	0.057635
33.51 	0.058453 	3815 	0.057686
33.55 	0.066875 	3843 	0.065351
33.59 	0.061856 	3880 	0.061101
33.63 	0.060475 	3919 	0.059279
33.67 	0.065250 	3954 	0.064065
33.71 	0.061635 	3975 	0.060604
33.75 	0.061015 	3999 	0.060405
33.79 	0.060134 	4041 	0.058974
33.83 	0.055556 	4050 	0.055122
33.87 	0.062272 	4111 	0.060847
33.91 	0.061702 	4149 	0.060290
33.95 	0.064339 	4181 	0.063218
33.99 	0.064048 	4200 	0.063490
34.03 	0.061263 	4244 	0.060297
34.07 	0.059513 	4268 	0.058415
34.11 	0.064854 	4302 	0.063492
34.15 	0.060032 	4331 	0.058950
34.19 	0.054333 	4362 	0.053102
34.23 	0.060779 	4393 	0.059978
34.27 	0.055631 	4422 	0.054704
34.31 	0.059668 	4458 	0.058880
34.35 	0.060214 	4484 	0.059692
34.39 	0.056419 	4502 	0.056289
34.43 	0.060145 	4539 	0.059371
34.47 	0.055314 	4592 	0.054655
34.51 	0.055363 	4606 	0.054472
34.55 	0.063537 	4643 	0.062653
34.59 	0.059251 	4675 	0.057873
34.63 	0.061996 	4710 	0.061105
34.67 	0.062434 	4741 	0.061940
34.71 	0.056441 	4766 	0.055438
34.75 	0.057612 	4808 	0.056759
34.79 	0.059080 	4824 	0.058472
34.83 	0.058618 	4862 	0.057293
34.87 	0.060394 	4868 	0.059532
34.91 	0.068824 	4882 	0.067144
34.95 	0.059714 	4890 	0.058636
34.99 	0.055340 	4897 	0.053905
35.03 	0.054825 	4943 	0.054232
35.07 	0.056883 	4940 	0.056053
35.11 	0.058217 	4947 	0.056915
35.15 	0.063804 	4937 	0.062717
35.19 	0.056455 	4942 	0.055625
35.23 	0.065116 	4945 	0.062984
35.27 	0.057801 	4948 	0.056972
35.31 	0.062234 	4933 	0.061284
35.35 	0.060704 	4942 	0.060112
35.39 	0.057634 	4945 	0.056449
35.43 	0.059801 	4933 	0.058970
35.47 	0.057595 	4931 	0.056407
35.51 	0.066179 	4926 	0.065704
35.55 	0.055005 	4945 	0.054038
35.59 	0.066734 	4945 	0.065549
35.63 	0.061299 	4943 	0.059995
35.67 	0.061311 	4942 	0.060600
35.71 	0.065829 	4937 	0.065355
35.75 	0.062868 	4931 	0.061680
35.79 	0.061841 	4932 	0.061010
35.83 	0.058835 	4946 	0.057888
35.87 	0.051595 	4923 	0.050881
35.91 	0.058859 	4927 	0.057908
35.95 	0.052674 	4917 	0.052198
35.99 	0.059324 	4939 	0.058256
36.03 	0.067166 	4943 	0.065981
36.07 	0.062968 	4939 	0.062019
36.11 	0.058835 	4929 	0.058122
36.15 	0.059526 	4939 	0.058696
36.19 	0.063968 	4940 	0.062545
36.23 	0.062411 	4935 	0.061343
36.27 	0.059492 	4925 	0.058303
36.31 	0.062500 	4928 	0.061430
36.35 	0.060864 	4929 	0.059557
36.39 	0.056289 	4921 	0.054861
36.43 	0.060471 	4928 	0.059995
36.47 	0.064222 	4936 	0.063391
36.51 	0.059801 	4933 	0.058733
36.55 	0.058656 	4927 	0.058181
36.59 	0.061348 	4939 	0.059451
36.63 	0.056784 	4931 	0.056051
36.67 	0.059229 	4930 	0.058140
36.71 	0.057305 	4921 	0.056829
36.75 	0.059668 	4944 	0.058957
36.79 	0.061166 	4921 	0.060452
36.83 	0.059817 	4915 	0.057910
36.87 	0.056230 	4944 	0.055144
36.91 	0.056871 	4941 	0.056160
36.95 	0.059801 	4933 	0.058376
36.99 	0.066869 	4935 	0.065445
37.03 	0.060926 	4924 	0.059974
37.07 	0.062006 	4935 	0.060463
37.11 	0.060182 	4935 	0.058995
37.15 	0.056020 	4909 	0.054946
37.19 	0.064975 	4925 	0.063379
37.23 	0.050427 	4918 	0.049712
37.27 	0.055374 	4894 	0.054656
37.31 	0.052482 	4935 	0.052007
37.35 	0.054678 	4938 	0.053966
37.39 	0.053944 	4931 	0.053113
37.43 	0.050081 	4932 	0.049725
37.47 	0.052343 	4929 	0.051630
37.51 	0.051895 	4933 	0.051658
37.55 	0.054767 	4930 	0.054054
37.59 	0.050865 	4915 	0.050388
37.63 	0.050823 	4919 	0.049613
37.67 	0.056077 	4904 	0.054624
37.71 	0.058024 	4929 	0.057073
37.75 	0.053846 	4940 	0.053135
37.79 	0.054158 	4930 	0.053208
37.83 	0.053455 	4920 	0.052622
37.87 	0.051630 	4939 	0.050681
37.91 	0.055984 	4930 	0.055152
37.95 	0.058728 	4921 	0.058371
37.99 	0.053542 	4912 	0.052946
38.03 	0.048482 	4909 	0.047886
38.07 	0.045630 	4909 	0.045153
38.11 	0.054914 	4935 	0.054083
38.15 	0.060187 	4918 	0.059234
38.19 	0.055578 	4930 	0.054489
38.23 	0.057716 	4938 	0.056529
38.27 	0.059432 	4930 	0.058700
38.31 	0.050335 	4927 	0.049859
38.35 	0.064326 	4928 	0.063613
38.39 	0.058668 	4909 	0.056997
38.43 	0.052889 	4916 	0.051816
38.47 	0.059099 	4907 	0.058005
38.51 	0.065896 	4932 	0.064827
38.55 	0.062196 	4936 	0.060891
38.59 	0.058692 	4924 	0.057978
38.63 	0.058895 	4924 	0.057805
38.67 	0.057727 	4937 	0.056778
38.71 	0.053412 	4924 	0.052936
38.75 	0.055003 	4927 	0.054171
38.79 	0.054317 	4934 	0.053605
38.83 	0.052653 	4919 	0.051700
38.87 	0.047445 	4911 	0.046610
38.91 	0.051193 	4903 	0.050715
38.95 	0.048597 	4918 	0.048121
38.99 	0.051043 	4937 	0.050213
39.03 	0.054317 	4934 	0.053130
39.07 	0.051990 	4924 	0.051276
39.11 	0.040154 	4931 	0.039204
39.15 	0.046999 	4915 	0.045926
39.19 	0.053691 	4917 	0.053215
39.23 	0.052386 	4925 	0.051672
39.27 	0.047047 	4910 	0.045973
39.31 	0.051188 	4884 	0.050228
39.35 	0.050861 	4935 	0.050268
39.39 	0.044025 	4929 	0.043550
39.43 	0.045003 	4933 	0.044409
39.47 	0.046719 	4923 	0.045490
39.51 	0.049959 	4924 	0.049484
39.55 	0.045944 	4919 	0.045468
39.59 	0.048453 	4912 	0.047737
39.63 	0.050589 	4922 	0.049518
39.67 	0.051903 	4913 	0.050810
39.71 	0.049234 	4895 	0.048157
39.75 	0.045049 	4928 	0.044335
39.79 	0.055014 	4926 	0.053825
39.83 	0.049655 	4934 	0.049062
39.87 	0.048934 	4925 	0.048458
39.91 	0.049370 	4922 	0.048894
39.95 	0.046389 	4915 	0.045912
39.99 	0.049473 	4932 	0.048879
40.03 	0.048295 	4928 	0.048058
40.07 	0.047329 	4923 	0.046496
40.11 	0.047803 	4916 	0.047326
40.15 	0.046815 	4913 	0.046338
40.19 	0.045040 	4929 	0.044564
40.23 	0.044809 	4932 	0.043978
40.27 	0.042739 	4937 	0.042383
40.31 	0.045961 	4939 	0.045130
40.35 	0.044725 	4919 	0.044129
40.39 	0.039951 	4931 	0.039595
40.43 	0.050792 	4922 	0.049959
40.47 	0.051850 	4918 	0.050897
40.51 	0.049370 	4922 	0.048656
40.55 	0.047474 	4908 	0.047235
40.59 	0.048410 	4937 	0.047817
40.63 	0.047870 	4930 	0.047276
40.67 	0.048662 	4932 	0.048305
40.71 	0.044404 	4932 	0.043929
40.75 	0.043602 	4931 	0.043008
40.79 	0.047319 	4924 	0.047081
40.83 	0.047281 	4928 	0.046568
40.87 	0.046266 	4928 	0.045672
40.91 	0.043876 	4923 	0.042924
40.95 	0.043558 	4913 	0.042227
40.99 	0.046913 	4924 	0.046318
41.03 	0.050153 	4905 	0.049078
41.07 	0.044016 	4930 	0.043779
41.11 	0.047416 	4935 	0.046586
41.15 	0.051002 	4941 	0.050172
41.19 	0.049899 	4930 	0.049047
41.23 	0.048188 	4939 	0.047951
41.27 	0.042182 	4931 	0.042063
41.31 	0.048044 	4933 	0.047450
41.35 	0.043135 	4938 	0.042779
41.39 	0.045003 	4933 	0.044133
41.43 	0.039968 	4929 	0.039611
41.47 	0.043240 	4926 	0.042883
41.51 	0.048785 	4940 	0.047936
41.55 	0.048430 	4935 	0.047460
41.59 	0.044192 	4933 	0.043598
41.63 	0.043540 	4938 	0.043184
41.67 	0.041093 	4940 	0.040125
41.71 	0.043981 	4934 	0.043506
41.75 	0.042199 	4929 	0.041605
41.79 	0.045105 	4944 	0.044631
41.83 	0.042411 	4928 	0.041579
41.87 	0.048430 	4935 	0.047717
41.91 	0.043760 	4936 	0.043285
41.95 	0.042588 	4931 	0.041737
41.99 	0.047299 	4905 	0.046582
42.03 	0.043734 	4939 	0.043141
42.07 	0.049018 	4937 	0.048543
42.11 	0.044692 	4945 	0.044099
42.15 	0.040300 	4938 	0.039707
42.19 	0.044010 	4908 	0.043532
42.23 	0.045789 	4892 	0.045310
42.27 	0.042470 	4874 	0.041749
42.31 	0.039753 	4855 	0.039270
42.35 	0.044440 	4838 	0.043834
42.39 	0.041840 	4804 	0.041474
42.43 	0.040693 	4792 	0.040448
42.47 	0.040923 	4765 	0.040678
42.51 	0.049968 	4743 	0.048960
42.55 	0.042481 	4708 	0.041983
42.59 	0.042504 	4729 	0.042256
42.63 	0.047144 	4709 	0.046895
42.67 	0.047395 	4684 	0.047020
42.71 	0.046537 	4663 	0.046034
42.75 	0.043535 	4617 	0.042900
42.79 	0.039284 	4582 	0.039156
42.83 	0.041005 	4536 	0.040618
42.87 	0.046677 	4499 	0.045896
42.91 	0.042415 	4456 	0.041889
42.95 	0.035100 	4416 	0.034547
42.99 	0.045610 	4385 	0.044809
43.03 	0.041311 	4333 	0.040748
43.07 	0.048184 	4296 	0.047912
43.11 	0.046298 	4255 	0.045312
43.15 	0.042558 	4206 	0.042001
43.19 	0.042203 	4194 	0.041365
43.23 	0.044295 	4154 	0.043590
43.27 	0.039951 	4105 	0.039380
43.31 	0.035058 	4079 	0.035058
43.35 	0.042411 	4032 	0.041830
43.39 	0.042979 	4002 	0.042393
43.43 	0.050253 	3960 	0.049365
43.47 	0.042081 	3921 	0.041932
43.51 	0.043590 	3877 	0.042684
43.55 	0.042848 	2964 	0.042255
43.59 	0.037228 	1746 	0.036892
43.63 	0.031968 	1001 	0.031968
43.67 	0.031873 	502 	0.031873
43.71 	0.041841 	239 	0.041841
43.75 	0.000000 	16 	0.000000