File: Example_Data/25SC_s1_0029.000.dat
#F C:\frames\spec\25SC_s1_0029.000
#C title =s:29 frm:0 25SC_s1
#C wavelength =0.15406

#S 1  fr_average C:\frames\spec\25SC_s1_0029.000 C:\win32app\speccom\mask.axs chi 0 180 0 360 0.02
#C 2 theta =0.000000 to 180 deg
#C   q   =0.000000 to 81.568 nm^-1
#C  chi  =0.000000 to 360 deg
#C collumns:
#C  1 position (2theta or chi in degrees)
#C  2 average intensity (sum of all counts in the region divided with number of pixels)
#C  3 Number of pixels in region)
#C  4 error (sum of sqrt(intensity) for all pixels divided by number)
#N 4
#L TTh  Int  N_pix  Err
32.99 	0.016393 	61 	0.016393
33.03 	0.062545 	1391 	0.061703
33.07 	0.073659 	2050 	0.072516
33.11 	0.063591 	2579 	0.063136
33.15 	0.067022 	2999 	0.066046
33.19 	0.058049 	3342 	0.056997
33.23 	0.062731 	3523 	0.062066
33.27 	0.056198 	3630 	0.055553
33.31 	0.069399 	3660 	0.067158
33.35 	0.065782 	3694 	0.064514
33.39 	0.061947 	3729 	0.061319
33.43 	0.057432 	3761 	0.056341
33.47 	0.057399 	3798 	0.056473
33.51 	0.055308 	3815 	0.054694
33.55 	0.069997 	3843 	0.069235
33.59 	0.062371 	3880 	0.061465
33.63 	0.056647 	3919 	0.056049
33.67 	0.061710 	3954 	0.059932
33.71 	0.062893 	3975 	0.061395
33.75 	0.061015 	3999 	0.060283
33.79 	0.056174 	4041 	0.054725
33.83 	0.062716 	4050 	0.061993
33.87 	0.064218 	4111 	0.062912
33.91 	0.057363 	4149 	0.056940
33.95 	0.058120 	4181 	0.057560
33.99 	0.063571 	4200 	0.062177
34.03 	0.058671 	4244 	0.057843
34.07 	0.056935 	4268 	0.056249
34.11 	0.053928 	4302 	0.052975
34.15 	0.053798 	4331 	0.052987
34.19 	0.054333 	4362 	0.053371
34.23 	0.058502 	4393 	0.056747
34.27 	0.059475 	4422 	0.058813
34.31 	0.056752 	4458 	0.056226
34.35 	0.055977 	4484 	0.055585
34.39 	0.052199 	4502 	0.050898
34.43 	0.055739 	4539 	0.054815
34.47 	0.058580 	4592 	0.057304
34.51 	0.055797 	4606 	0.054398
34.55 	0.052983 	4643 	0.052478
34.59 	0.057326 	4675 	0.056198
34.63 	0.061359 	4710 	0.060613
34.67 	0.055263 	4741 	0.054768
34.71 	0.054763 	4766 	0.053391
34.75 	0.049709 	4808 	0.048612
34.79 	0.053897 	4824 	0.052561
34.83 	0.052653 	4862 	0.051810
34.87 	0.065530 	4868 	0.064808
34.91 	0.054281 	4882 	0.053681
34.95 	0.056442 	4890 	0.055483
34.99 	0.050439 	4897 	0.049602
35.03 	0.053611 	4943 	0.052900
35.07 	0.054049 	4940 	0.053456
35.11 	0.054983 	4947 	0.053917
35.15 	0.055904 	4937 	0.055074
35.19 	0.057871 	4942 	0.056330
35.23 	0.048938 	4945 	0.048228
35.27 	0.051536 	4948 	0.050589
35.31 	0.057571 	4933 	0.056978
35.35 	0.053824 	4942 	0.052876
35.39 	0.058241 	4945 	0.057411
35.43 	0.055544 	4933 	0.055069
35.47 	0.060637 	4931 	0.059073
35.51 	0.055420 	4926 	0.054350
35.55 	0.059656 	4945 	0.058334
35.59 	0.051365 	4945 	0.050299
35.63 	0.056848 	4943 	0.055663
35.67 	0.055443 	4942 	0.054613
35.71 	0.056715 	4937 	0.055884
35.75 	0.056784 	4931 	0.056071
35.79 	0.059408 	4932 	0.058339
35.83 	0.062273 	4946 	0.060832
35.87 	0.059720 	4923 	0.058768
35.91 	0.063730 	4927 	0.062779
35.95 	0.057962 	4917 	0.057247
35.99 	0.059121 	4939 	0.058528
36.03 	0.057253 	4943 	0.055949
36.07 	0.064386 	4939 	0.063318
36.11 	0.059241 	4929 	0.058053
36.15 	0.057704 	4939 	0.056637
36.19 	0.056073 	4940 	0.054650
36.23 	0.052482 	4935 	0.051414
36.27 	0.052386 	4925 	0.051672
36.31 	0.054789 	4928 	0.054076
36.35 	0.060256 	4929 	0.058235
36.39 	0.053851 	4921 	0.053137
36.43 	0.054789 	4928 	0.054076
36.47 	0.059562 	4936 	0.058712
36.51 	0.059801 	4933 	0.058495
36.55 	0.062107 	4927 	0.060442
36.59 	0.051832 	4939 	0.051239
36.63 	0.057392 	4931 	0.055729
36.67 	0.057809 	4930 	0.057096
36.71 	0.053444 	4921 	0.053087
36.75 	0.054409 	4944 	0.053462
36.79 	0.060354 	4921 	0.059144
36.83 	0.052899 	4915 	0.052045
36.87 	0.056230 	4944 	0.055756
36.91 	0.058288 	4941 	0.057221
36.95 	0.059193 	4933 	0.057867
36.99 	0.059169 	4935 	0.057745
37.03 	0.061332 	4924 	0.060024
37.07 	0.054103 	4935 	0.053154
37.11 	0.055319 	4935 	0.055082
37.15 	0.052760 	4909 	0.052044
37.19 	0.059086 	4925 	0.057778
37.23 	0.052867 	4918 	0.052014
37.27 	0.064160 	4894 	0.062963
37.31 	0.059980 	4935 	0.058793
37.35 	0.061563 	4938 	0.060377
37.39 	0.060637 	4931 	0.059805
37.43 	0.054745 	4932 	0.054032
37.47 	0.051329 	4929 	0.049784
37.51 	0.056558 	4933 	0.055608
37.55 	0.055984 	4930 	0.055390
37.59 	0.053103 	4915 	0.051534
37.63 	0.058142 	4919 	0.057427
37.67 	0.057096 	4904 	0.055763
37.71 	0.062284 	4929 	0.060858
37.75 	0.064170 	4940 	0.062866
37.79 	0.055781 	4930 	0.054236
37.83 	0.055691 	4920 	0.054619
37.87 	0.052237 	4939 	0.051407
37.91 	0.056592 	4930 	0.055166
37.95 	0.057509 	4921 	0.056318
37.99 	0.053950 	4912 	0.053234
38.03 	0.057242 	4909 	0.056526
38.07 	0.057649 	4909 	0.056933
38.11 	0.057751 	4935 	0.056920
38.15 	0.061204 	4918 	0.059973
38.19 	0.061663 	4930 	0.060119
38.23 	0.063386 	4938 	0.061587
38.27 	0.064909 	4930 	0.064315
38.31 	0.069008 	4927 	0.067937
38.35 	0.064529 	4928 	0.063341
38.39 	0.068853 	4909 	0.068018
38.43 	0.081774 	4916 	0.080106
38.47 	0.079275 	4907 	0.077603
38.51 	0.082522 	4932 	0.080820
38.55 	0.081037 	4936 	0.079594
38.59 	0.073314 	4924 	0.072125
38.63 	0.077985 	4924 	0.076439
38.67 	0.078590 	4937 	0.076454
38.71 	0.072299 	4924 	0.070395
38.75 	0.071037 	4927 	0.069115
38.79 	0.063843 	4934 	0.062774
38.83 	0.065867 	4919 	0.063723
38.87 	0.058033 	4911 	0.057178
38.91 	0.047318 	4903 	0.046243
38.95 	0.053274 	4918 	0.052202
38.99 	0.052461 	4937 	0.052224
39.03 	0.053304 	4934 	0.052829
39.07 	0.050772 	4924 	0.050058
39.11 	0.049077 	4931 	0.047969
39.15 	0.049034 	4915 	0.048557
39.19 	0.054505 	4917 	0.053194
39.23 	0.045279 	4925 	0.045041
39.27 	0.048065 	4910 	0.047707
39.31 	0.047297 	4884 	0.046578
39.35 	0.045795 	4935 	0.044727
39.39 	0.048489 	4929 	0.047775
39.43 	0.047436 	4933 	0.047198
39.47 	0.049970 	4923 	0.049256
39.51 	0.047725 	4924 	0.046774
39.55 	0.046961 	4919 	0.046008
39.59 	0.038681 	4912 	0.038562
39.63 	0.050589 	4922 	0.049260
39.67 	0.044169 	4913 	0.043930
39.71 	0.047600 	4895 	0.046882
39.75 	0.041193 	4928 	0.040955
39.79 	0.047097 	4926 	0.046740
39.83 	0.047021 	4934 	0.046190
39.87 	0.043046 	4925 	0.042332
39.91 	0.046119 	4922 	0.045167
39.95 	0.043133 	4915 	0.043133
39.99 	0.049676 	4932 	0.049082
40.03 	0.045455 	4928 	0.045217
40.07 	0.042251 	4923 	0.041775
40.11 	0.040887 	4916 	0.039934
40.15 	0.044779 	4913 	0.044302
40.19 	0.046054 	4929 	0.045341
40.23 	0.038727 	4932 	0.038370
40.27 	0.039700 	4937 	0.039107
40.31 	0.038267 	4939 	0.037674
40.35 	0.042895 	4919 	0.042280
40.39 	0.045224 	4931 	0.044749
40.43 	0.040634 	4922 	0.040277
40.47 	0.041277 	4918 	0.041158
40.51 	0.042869 	4922 	0.042393
40.55 	0.044825 	4908 	0.043870
40.59 	0.041726 	4937 	0.041251
40.63 	0.045639 	4930 	0.045045
40.67 	0.043796 	4932 	0.043083
40.71 	0.050487 	4932 	0.050130
40.75 	0.049077 	4931 	0.048246
40.79 	0.045085 	4924 	0.044847
40.83 	0.040381 	4928 	0.040025
40.87 	0.044643 	4928 	0.043930
40.91 	0.042860 	4923 	0.042265
40.95 	0.038469 	4913 	0.037873
40.99 	0.038180 	4924 	0.037823
41.03 	0.043017 	4905 	0.042540
41.07 	0.039351 	4930 	0.038519
41.11 	0.039919 	4935 	0.038969
41.15 	0.043918 	4941 	0.043207
41.19 	0.042394 	4930 	0.042275
41.23 	0.041709 	4939 	0.041116
41.27 	0.042385 	4931 	0.042029
41.31 	0.042368 	4933 	0.041299
41.35 	0.040907 	4938 	0.040057
41.39 	0.038719 	4933 	0.038600
41.43 	0.038344 	4929 	0.037869
41.47 	0.038165 	4926 	0.037570
41.51 	0.042915 	4940 	0.042204
41.55 	0.040527 	4935 	0.039558
41.59 	0.042368 	4933 	0.041893
41.63 	0.041312 	4938 	0.040838
41.67 	0.041093 	4940 	0.040619
41.71 	0.040535 	4934 	0.040298
41.75 	0.034490 	4929 	0.034252
41.79 	0.034183 	4944 	0.033472
41.83 	0.036323 	4928 	0.035848
41.87 	0.038906 	4935 	0.038668
41.91 	0.040113 	4936 	0.039995
41.95 	0.039951 	4931 	0.039714
41.99 	0.044852 	4905 	0.044494
42.03 	0.035837 	4939 	0.035126
42.07 	0.036864 	4937 	0.036509
42.11 	0.036603 	4945 	0.036366
42.15 	0.039692 	4938 	0.038980
42.19 	0.044621 	4908 	0.043905
42.23 	0.037612 	4892 	0.037373
42.27 	0.038777 	4874 	0.038296
42.31 	0.038723 	4855 	0.038120
42.35 	0.041339 	4838 	0.040976
42.39 	0.036844 	4804 	0.036357
42.43 	0.040275 	4792 	0.039909
42.47 	0.040923 	4765 	0.040800
42.51 	0.033312 	4743 	0.033312
42.55 	0.043543 	4708 	0.043418
42.59 	0.041446 	4729 	0.040703
42.63 	0.036101 	4709 	0.035852
42.67 	0.040991 	4684 	0.040365
42.71 	0.040532 	4663 	0.040406
42.75 	0.042668 	4617 	0.042161
42.79 	0.038411 	4582 	0.038155
42.83 	0.038360 	4536 	0.037843
42.87 	0.039342 	4499 	0.038951
42.91 	0.037702 	4456 	0.037308
42.95 	0.031476 	4416 	0.031078
42.99 	0.038084 	4385 	0.037684
43.03 	0.037157 	4333 	0.036346
43.07 	0.038873 	4296 	0.038464
43.11 	0.039248 	4255 	0.038835
43.15 	0.039705 	4206 	0.039287
43.19 	0.036242 	4194 	0.035963
43.23 	0.040924 	4154 	0.039773
43.27 	0.038490 	4105 	0.038204
43.31 	0.034567 	4079 	0.034567
43.35 	0.039435 	4032 	0.038853
43.39 	0.034233 	4002 	0.033770
43.43 	0.035859 	3960 	0.035563
43.47 	0.037235 	3921 	0.036190
43.51 	0.038174 	3877 	0.037872
43.55 	0.034413 	2964 	0.034215
43.59 	0.042955 	1746 	0.042955
43.63 	0.031968 	1001 	0.031968
43.67 	0.039841 	502 	0.038674
43.71 	0.041841 	239 	0.039390
43.75 	0.000000 	16 	0.000000