File: Example_Data/25SC_s1_0052.003.dat
#F C:\frames\spec\25SC_s1_0052.003
#C title =s:52 frm:3 25SC_s1
#C wavelength =0.15406

#S 1  fr_average C:\frames\spec\25SC_s1_0052.003 C:\win32app\speccom\mask.axs chi 0 180 0 360 0.02
#C 2 theta =0.000000 to 180 deg
#C   q   =0.000000 to 81.568 nm^-1
#C  chi  =0.000000 to 360 deg
#C collumns:
#C  1 position (2theta or chi in degrees)
#C  2 average intensity (sum of all counts in the region divided with number of pixels)
#C  3 Number of pixels in region)
#C  4 error (sum of sqrt(intensity) for all pixels divided by number)
#N 4
#L TTh  Int  N_pix  Err
32.99 	0.049180 	61 	0.049180
33.03 	0.056794 	1391 	0.056373
33.07 	0.070732 	2050 	0.067780
33.11 	0.072896 	2579 	0.071307
33.15 	0.063688 	2999 	0.063297
33.19 	0.070916 	3342 	0.069689
33.23 	0.067840 	3523 	0.065318
33.27 	0.063085 	3630 	0.062117
33.31 	0.067213 	3660 	0.065293
33.35 	0.065512 	3694 	0.064560
33.39 	0.067042 	3729 	0.065785
33.43 	0.063813 	3761 	0.062723
33.47 	0.073723 	3798 	0.072489
33.51 	0.070511 	3815 	0.069436
33.55 	0.071038 	3843 	0.069311
33.59 	0.074742 	3880 	0.072780
33.63 	0.070681 	3919 	0.069486
33.67 	0.068285 	3954 	0.067396
33.71 	0.073711 	3975 	0.071304
33.75 	0.068267 	3999 	0.066509
33.79 	0.077951 	4041 	0.075487
33.83 	0.072346 	4050 	0.071044
33.87 	0.063731 	4111 	0.062877
33.91 	0.059773 	4149 	0.058362
33.95 	0.059316 	4181 	0.058195
33.99 	0.068571 	4200 	0.066758
34.03 	0.068332 	4244 	0.067228
34.07 	0.078725 	4268 	0.077490
34.11 	0.066713 	4302 	0.065079
34.15 	0.062572 	4331 	0.061355
34.19 	0.070381 	4362 	0.069038
34.23 	0.063510 	4393 	0.062443
34.27 	0.068747 	4422 	0.067687
34.31 	0.068416 	4458 	0.067234
34.35 	0.070027 	4484 	0.069112
34.39 	0.061972 	4502 	0.060541
34.43 	0.061027 	4539 	0.059994
34.47 	0.063589 	4592 	0.061803
34.51 	0.064047 	4606 	0.063157
34.55 	0.063106 	4643 	0.061592
34.59 	0.070160 	4675 	0.068907
34.63 	0.062420 	4710 	0.061052
34.67 	0.071715 	4741 	0.069965
34.71 	0.066513 	4766 	0.064157
34.75 	0.068428 	4808 	0.066600
34.79 	0.063640 	4824 	0.062649
34.83 	0.064582 	4862 	0.063619
34.87 	0.065941 	4868 	0.064236
34.91 	0.062270 	4882 	0.061410
34.95 	0.062781 	4890 	0.061583
34.99 	0.066571 	4897 	0.065495
35.03 	0.065345 	4943 	0.064278
35.07 	0.071255 	4940 	0.069575
35.11 	0.064281 	4947 	0.063452
35.15 	0.062994 	4937 	0.061669
35.19 	0.065358 	4942 	0.063936
35.23 	0.068554 	4945 	0.066540
35.27 	0.062449 	4948 	0.061502
35.31 	0.070951 	4933 	0.069744
35.35 	0.058478 	4942 	0.057412
35.39 	0.063094 	4945 	0.061416
35.43 	0.071762 	4933 	0.070436
35.47 	0.073819 	4931 	0.072631
35.51 	0.062728 	4926 	0.061896
35.55 	0.068756 	4945 	0.068282
35.59 	0.058443 	4945 	0.057495
35.63 	0.060287 	4943 	0.058984
35.67 	0.061109 	4942 	0.060279
35.71 	0.066235 	4937 	0.065048
35.75 	0.068343 	4931 	0.066799
35.79 	0.060219 	4932 	0.059150
35.83 	0.064092 	4946 	0.062553
35.87 	0.067235 	4923 	0.066046
35.91 	0.072255 	4927 	0.070333
35.95 	0.070571 	4917 	0.069142
35.99 	0.072484 	4939 	0.070824
36.03 	0.065952 	4943 	0.064530
36.07 	0.069042 	4939 	0.067738
36.11 	0.073240 	4929 	0.072052
36.15 	0.061146 	4939 	0.060197
36.19 	0.068219 	4940 	0.067151
36.23 	0.070719 	4935 	0.070126
36.27 	0.066193 	4925 	0.065241
36.31 	0.058442 	4928 	0.057847
36.35 	0.065733 	4929 	0.064783
36.39 	0.063605 	4921 	0.062177
36.43 	0.068182 	4928 	0.067350
36.47 	0.067261 	4936 	0.066430
36.51 	0.059599 	4933 	0.058649
36.55 	0.063325 	4927 	0.062730
36.59 	0.068435 	4939 	0.066774
36.63 	0.068343 	4931 	0.066542
36.67 	0.066329 	4930 	0.064764
36.71 	0.067669 	4921 	0.066697
36.75 	0.064927 	4944 	0.063861
36.79 	0.061370 	4921 	0.060279
36.83 	0.069379 	4915 	0.068188
36.87 	0.068972 	4944 	0.067669
36.91 	0.074681 	4941 	0.073140
36.95 	0.070748 	4933 	0.069541
36.99 	0.070719 	4935 	0.069058
37.03 	0.062551 	4924 	0.061956
37.07 	0.064032 	4935 	0.062133
37.11 	0.064235 	4935 	0.063167
37.15 	0.062334 	4909 	0.061141
37.19 	0.065584 	4925 	0.064275
37.23 	0.071777 	4918 	0.070586
37.27 	0.069473 	4894 	0.068755
37.31 	0.068693 	4935 	0.067506
37.35 	0.063386 	4938 	0.062299
37.39 	0.061651 	4931 	0.060700
37.43 	0.062044 	4932 	0.061094
37.47 	0.063502 	4929 	0.062551
37.51 	0.067302 	4933 	0.065877
37.55 	0.061866 	4930 	0.060421
37.59 	0.061648 	4915 	0.060198
37.63 	0.064851 	4919 	0.064136
37.67 	0.067496 	4904 	0.066162
37.71 	0.059850 	4929 	0.059493
37.75 	0.064777 	4940 	0.063829
37.79 	0.065112 	4930 	0.064399
37.83 	0.061382 	4920 	0.059953
37.87 	0.054060 	4939 	0.052992
37.91 	0.059432 	4930 	0.058481
37.95 	0.063199 	4921 	0.062722
37.99 	0.061686 	4912 	0.060493
38.03 	0.060909 	4909 	0.059357
38.07 	0.060094 	4909 	0.058542
38.11 	0.069504 	4935 	0.068198
38.15 	0.067507 	4918 	0.065482
38.19 	0.065112 	4930 	0.063567
38.23 	0.067639 	4938 	0.066690
38.27 	0.071400 	4930 	0.070568
38.31 	0.072458 	4927 	0.071012
38.35 	0.078328 	4928 	0.076525
38.39 	0.078427 	4909 	0.075902
38.43 	0.081164 	4916 	0.079138
38.47 	0.082739 	4907 	0.080690
38.51 	0.083739 	4932 	0.081838
38.55 	0.078809 	4936 	0.077741
38.59 	0.071487 	4924 	0.070297
38.63 	0.070268 	4924 	0.069078
38.67 	0.064412 	4937 	0.063106
38.71 	0.063769 	4924 	0.062441
38.75 	0.057236 	4927 	0.056403
38.79 	0.066680 	4934 	0.064781
38.83 	0.061801 	4919 	0.061206
38.87 	0.063124 	4911 	0.061911
38.91 	0.059555 	4903 	0.058480
38.95 	0.052054 	4918 	0.050743
38.99 	0.056512 	4937 	0.055800
39.03 	0.055736 	4934 	0.055380
39.07 	0.055037 	4924 	0.054204
39.11 	0.051308 	4931 	0.050833
39.15 	0.048830 	4915 	0.047877
39.19 	0.051454 	4917 	0.050382
39.23 	0.051371 	4925 	0.050399
39.27 	0.054582 	4910 	0.053509
39.31 	0.054668 	4884 	0.053829
39.35 	0.046403 	4935 	0.045691
39.39 	0.056198 	4929 	0.055604
39.43 	0.048247 	4933 	0.046921
39.47 	0.053829 	4923 	0.052996
39.51 	0.054427 	4924 	0.053476
39.55 	0.056312 	4919 	0.055955
39.59 	0.057614 	4912 	0.056898
39.63 	0.045104 	4922 	0.044390
39.67 	0.050071 	4913 	0.049714
39.71 	0.051685 	4895 	0.050828
39.75 	0.052760 	4928 	0.052047
39.79 	0.051157 	4926 	0.050444
39.83 	0.051277 	4934 	0.050327
39.87 	0.047310 	4925 	0.046477
39.91 	0.048557 	4922 	0.047962
39.95 	0.040285 	4915 	0.039927
39.99 	0.047242 	4932 	0.046886
40.03 	0.050731 	4928 	0.049879
40.07 	0.052001 	4923 	0.051525
40.11 	0.047193 	4916 	0.046716
40.15 	0.056788 	4913 	0.056073
40.19 	0.048286 	4929 	0.047216
40.23 	0.045823 	4932 	0.044754
40.27 	0.043954 	4937 	0.043242
40.31 	0.051225 	4939 	0.050513
40.35 	0.044928 	4919 	0.044451
40.39 	0.045021 	4931 	0.044309
40.43 	0.053840 	4922 	0.052412
40.47 	0.046157 	4918 	0.045800
40.51 	0.046729 	4922 	0.046253
40.55 	0.046659 	4908 	0.046062
40.59 	0.043751 	4937 	0.043395
40.63 	0.054361 	4930 	0.054005
40.67 	0.050284 	4932 	0.049571
40.71 	0.050689 	4932 	0.050214
40.75 	0.053742 	4931 	0.053029
40.79 	0.047929 	4924 	0.047215
40.83 	0.047078 	4928 	0.046602
40.87 	0.048498 	4928 	0.047904
40.91 	0.050782 	4923 	0.050425
40.95 	0.044983 	4913 	0.044387
40.99 	0.048741 	4924 	0.048384
41.03 	0.051172 	4905 	0.050695
41.07 	0.056795 	4930 	0.055726
41.11 	0.044174 	4935 	0.043443
41.15 	0.049787 	4941 	0.049313
41.19 	0.052130 	4930 	0.051417
41.23 	0.050213 	4939 	0.049145
41.27 	0.050497 	4931 	0.049903
41.31 	0.046827 	4933 	0.045996
41.35 	0.053260 	4938 	0.052667
41.39 	0.048652 	4933 	0.047939
41.43 	0.043619 	4929 	0.043382
41.47 	0.049330 	4926 	0.048260
41.51 	0.050000 	4940 	0.049032
41.55 	0.046201 	4935 	0.045488
41.59 	0.045408 	4933 	0.044933
41.63 	0.046173 	4938 	0.045698
41.67 	0.048178 	4940 	0.047704
41.71 	0.051277 	4934 	0.050802
41.75 	0.050720 	4929 	0.050007
41.79 	0.046723 	4944 	0.045538
41.83 	0.044237 	4928 	0.043999
41.87 	0.041135 	4935 	0.040660
41.91 	0.051661 	4936 	0.050949
41.95 	0.047252 	4931 	0.046421
41.99 	0.039755 	4905 	0.039139
42.03 	0.042519 	4939 	0.042282
42.07 	0.042941 	4937 	0.042348
42.11 	0.045298 	4945 	0.044232
42.15 	0.046375 	4938 	0.045426
42.19 	0.050530 	4908 	0.050172
42.23 	0.043336 	4892 	0.042857
42.27 	0.042675 	4874 	0.042555
42.31 	0.047374 	4855 	0.046389
42.35 	0.044026 	4838 	0.043663
42.39 	0.042256 	4804 	0.041891
42.43 	0.043614 	4792 	0.043125
42.47 	0.046380 	4765 	0.045519
42.51 	0.045962 	4743 	0.045098
42.55 	0.044180 	4708 	0.043682
42.59 	0.046733 	4729 	0.045990
42.63 	0.041410 	4709 	0.041016
42.67 	0.044406 	4684 	0.044156
42.71 	0.045893 	4663 	0.045014
42.75 	0.045267 	4617 	0.045141
42.79 	0.042558 	4582 	0.042302
42.83 	0.045855 	4536 	0.045318
42.87 	0.041565 	4499 	0.040914
42.91 	0.037478 	4456 	0.037083
42.95 	0.044837 	4416 	0.044439
42.99 	0.045382 	4385 	0.044714
43.03 	0.045927 	4333 	0.044980
43.07 	0.043994 	4296 	0.043585
43.11 	0.048179 	4255 	0.047628
43.15 	0.045174 	4206 	0.044616
43.19 	0.043157 	4194 	0.042319
43.23 	0.044054 	4154 	0.043772
43.27 	0.043118 	4105 	0.042119
43.31 	0.045845 	4079 	0.044696
43.35 	0.047371 	4032 	0.046645
43.39 	0.043728 	4002 	0.043289
43.43 	0.042677 	3960 	0.041493
43.47 	0.041571 	3921 	0.040675
43.51 	0.040495 	3877 	0.039891
43.55 	0.037112 	2964 	0.036321
43.59 	0.042955 	1746 	0.042284
43.63 	0.041958 	1001 	0.041373
43.67 	0.049801 	502 	0.048634
43.71 	0.041841 	239 	0.041841
43.75 	0.000000 	16 	0.000000