File: Example_Data/25SC_s1_0049.004.dat
#F C:\frames\spec\25SC_s1_0049.004
#C title =s:49 frm:4 25SC_s1
#C wavelength =0.15406

#S 1  fr_average C:\frames\spec\25SC_s1_0049.004 C:\win32app\speccom\mask.axs chi 0 180 0 360 0.02
#C 2 theta =0.000000 to 180 deg
#C   q   =0.000000 to 81.568 nm^-1
#C  chi  =0.000000 to 360 deg
#C collumns:
#C  1 position (2theta or chi in degrees)
#C  2 average intensity (sum of all counts in the region divided with number of pixels)
#C  3 Number of pixels in region)
#C  4 error (sum of sqrt(intensity) for all pixels divided by number)
#N 4
#L TTh  Int  N_pix  Err
32.99 	0.114754 	61 	0.105151
33.03 	0.057513 	1391 	0.057091
33.07 	0.061951 	2050 	0.060522
33.11 	0.061264 	2579 	0.059674
33.15 	0.060353 	2999 	0.059963
33.19 	0.050269 	3342 	0.049743
33.23 	0.055634 	3523 	0.054637
33.27 	0.053444 	3630 	0.052449
33.31 	0.065301 	3660 	0.064180
33.35 	0.059556 	3694 	0.058605
33.39 	0.058461 	3729 	0.058304
33.43 	0.056368 	3761 	0.055433
33.47 	0.063981 	3798 	0.062439
33.51 	0.056881 	3815 	0.056113
33.55 	0.054905 	3843 	0.054143
33.59 	0.061082 	3880 	0.059397
33.63 	0.056647 	3919 	0.056049
33.67 	0.061963 	3954 	0.060481
33.71 	0.062138 	3975 	0.060616
33.75 	0.060265 	3999 	0.059679
33.79 	0.066073 	4041 	0.064768
33.83 	0.052593 	4050 	0.051869
33.87 	0.054001 	4111 	0.053289
33.91 	0.063630 	4149 	0.062641
33.95 	0.054293 	4181 	0.053453
33.99 	0.057619 	4200 	0.056643
34.03 	0.055372 	4244 	0.054406
34.07 	0.064433 	4268 	0.063198
34.11 	0.065783 	4302 	0.063446
34.15 	0.056338 	4331 	0.055256
34.19 	0.055708 	4362 	0.054634
34.23 	0.061689 	4393 	0.060622
34.27 	0.063320 	4422 	0.061973
34.31 	0.054957 	4458 	0.053906
34.35 	0.061329 	4484 	0.059762
34.39 	0.053976 	4502 	0.052415
34.43 	0.051113 	4539 	0.049822
34.47 	0.055531 	4592 	0.055021
34.51 	0.057099 	4606 	0.055192
34.55 	0.057291 	4643 	0.056260
34.59 	0.060107 	4675 	0.058854
34.63 	0.063482 	4710 	0.062487
34.67 	0.059059 	4741 	0.058194
34.71 	0.057700 	4766 	0.056594
34.75 	0.059276 	4808 	0.058545
34.79 	0.053483 	4824 	0.052875
34.83 	0.059852 	4862 	0.059009
34.87 	0.065325 	4868 	0.064362
34.91 	0.060426 	4882 	0.059706
34.95 	0.062577 	4890 	0.061139
34.99 	0.055748 	4897 	0.054652
35.03 	0.061299 	4943 	0.060094
35.07 	0.056275 	4940 	0.054734
35.11 	0.053366 	4947 	0.052300
35.15 	0.053879 	4937 	0.052436
35.19 	0.057871 	4942 	0.057160
35.23 	0.056825 	4945 	0.056233
35.27 	0.058610 	4948 	0.057662
35.31 	0.060207 	4933 	0.058901
35.35 	0.059490 	4942 	0.058423
35.39 	0.064914 	4945 	0.063966
35.43 	0.059193 	4933 	0.058006
35.47 	0.060028 	4931 	0.059078
35.51 	0.058668 	4926 	0.057479
35.55 	0.062083 	4945 	0.060780
35.59 	0.059858 	4945 	0.058911
35.63 	0.060085 	4943 	0.058544
35.67 	0.056455 	4942 	0.054914
35.71 	0.063399 	4937 	0.062450
35.75 	0.054756 	4931 	0.054162
35.79 	0.060827 	4932 	0.059877
35.83 	0.056207 	4946 	0.054667
35.87 	0.052407 	4923 	0.051574
35.91 	0.057845 	4927 	0.056418
35.95 	0.060403 	4917 	0.059926
35.99 	0.052845 	4939 	0.052252
36.03 	0.059073 	4943 	0.058007
36.07 	0.062361 	4939 	0.061037
36.11 	0.059647 	4929 	0.057864
36.15 	0.056894 	4939 	0.055708
36.19 	0.059717 	4940 	0.059124
36.23 	0.057548 	4935 	0.056361
36.27 	0.053604 	4925 	0.052771
36.31 	0.056615 	4928 	0.055783
36.35 	0.051329 	4929 	0.051091
36.39 	0.064215 	4921 	0.062409
36.43 	0.056209 	4928 	0.055496
36.47 	0.055713 	4936 	0.054645
36.51 	0.053720 	4933 	0.052651
36.55 	0.063122 	4927 	0.061695
36.59 	0.057097 	4939 	0.056504
36.63 	0.052322 	4931 	0.051372
36.67 	0.056795 	4930 	0.055607
36.71 	0.058728 	4921 	0.057538
36.75 	0.057241 	4944 	0.056530
36.79 	0.058728 	4921 	0.058133
36.83 	0.061241 	4915 	0.059553
36.87 	0.059871 	4944 	0.058567
36.91 	0.061121 	4941 	0.060766
36.95 	0.057977 	4933 	0.057027
36.99 	0.056130 	4935 	0.055180
37.03 	0.054833 	4924 	0.053763
37.07 	0.064235 	4935 	0.062316
37.11 	0.059777 	4935 	0.058471
37.15 	0.055612 	4909 	0.054419
37.19 	0.052183 	4925 	0.051469
37.23 	0.058560 	4918 	0.057727
37.27 	0.053535 	4894 	0.053176
37.31 	0.050253 	4935 	0.049541
37.35 	0.060956 	4938 	0.059770
37.39 	0.049280 	4931 	0.048567
37.43 	0.056164 	4932 	0.055332
37.47 	0.052140 	4929 	0.051190
37.51 	0.049666 	4933 	0.049191
37.55 	0.051927 	4930 	0.050976
37.59 	0.062258 	4915 	0.061543
37.63 	0.053060 	4919 	0.052345
37.67 	0.057300 	4904 	0.055628
37.71 	0.063502 	4929 	0.062076
37.75 	0.059919 	4940 	0.058140
37.79 	0.052535 	4930 	0.052179
37.83 	0.063211 	4920 	0.062616
37.87 	0.057502 	4939 	0.056197
37.91 	0.051318 	4930 	0.050249
37.95 	0.058931 	4921 	0.058098
37.99 	0.055782 	4912 	0.055305
38.03 	0.060501 	4909 	0.059308
38.07 	0.056834 	4909 	0.055760
38.11 	0.052888 	4935 	0.052531
38.15 	0.055917 	4918 	0.055064
38.19 	0.059432 	4930 	0.057887
38.23 	0.059133 	4938 	0.058066
38.27 	0.052535 	4930 	0.051941
38.31 	0.057642 	4927 	0.056552
38.35 	0.061485 	4928 	0.060772
38.39 	0.065594 	4909 	0.064401
38.43 	0.064890 	4916 	0.063699
38.47 	0.068270 	4907 	0.066937
38.51 	0.068735 	4932 	0.067785
38.55 	0.070705 	4936 	0.069874
38.59 	0.068643 	4924 	0.067216
38.63 	0.070268 	4924 	0.069078
38.67 	0.062791 	4937 	0.061961
38.71 	0.065191 	4924 	0.064477
38.75 	0.063528 	4927 	0.062339
38.79 	0.064248 	4934 	0.062705
38.83 	0.054279 	4919 	0.053803
38.87 	0.058847 	4911 	0.058251
38.91 	0.057108 	4903 	0.056152
38.95 	0.054900 	4918 	0.053828
38.99 	0.053069 	4937 	0.052357
39.03 	0.049250 	4934 	0.048538
39.07 	0.053615 	4924 	0.052663
39.11 	0.055770 	4931 	0.054582
39.15 	0.055341 	4915 	0.054606
39.19 	0.055725 	4917 	0.054653
39.23 	0.056244 	4925 	0.055411
39.27 	0.054582 	4910 	0.053389
39.31 	0.054668 	4884 	0.054069
39.35 	0.055927 	4935 	0.054977
39.39 	0.050112 	4929 	0.049280
39.43 	0.054531 	4933 	0.054056
39.47 	0.050782 	4923 	0.049949
39.51 	0.056052 	4924 	0.055338
39.55 	0.050010 	4919 	0.049415
39.59 	0.053542 	4912 	0.052708
39.63 	0.055262 	4922 	0.054191
39.67 	0.059841 	4913 	0.058768
39.71 	0.051481 	4895 	0.050883
39.75 	0.055398 	4928 	0.054922
39.79 	0.051157 	4926 	0.050800
39.83 	0.064451 	4934 	0.063501
39.87 	0.051574 	4925 	0.050860
39.91 	0.056278 	4922 	0.055207
39.95 	0.053306 	4915 	0.052710
39.99 	0.054745 	4932 	0.053913
40.03 	0.052760 	4928 	0.052047
40.07 	0.053626 	4923 	0.052040
40.11 	0.055533 	4916 	0.054461
40.15 	0.056788 	4913 	0.056192
40.19 	0.054575 	4929 	0.053505
40.23 	0.049473 	4932 	0.048523
40.27 	0.053879 	4937 	0.053167
40.31 	0.054869 	4939 	0.053545
40.35 	0.049400 	4919 	0.048567
40.39 	0.051105 	4931 	0.050036
40.43 	0.046526 	4922 	0.045812
40.47 	0.047784 	4918 	0.047545
40.51 	0.052215 	4922 	0.051143
40.55 	0.045232 	4908 	0.044874
40.59 	0.051853 	4937 	0.050904
40.63 	0.050101 	4930 	0.049983
40.67 	0.052311 	4932 	0.051005
40.71 	0.050892 	4932 	0.050298
40.75 	0.047860 	4931 	0.047266
40.79 	0.056864 	4924 	0.056151
40.83 	0.048701 	4928 	0.048345
40.87 	0.051745 	4928 	0.051507
40.91 	0.046110 	4923 	0.045634
40.95 	0.043761 	4913 	0.043404
40.99 	0.051990 	4924 	0.050543
41.03 	0.050561 	4905 	0.049605
41.07 	0.053550 	4930 	0.052599
41.11 	0.046809 	4935 	0.046452
41.15 	0.046752 	4941 	0.045803
41.19 	0.053955 	4930 	0.053361
41.23 	0.052440 	4939 	0.051491
41.27 	0.048672 	4931 	0.048078
41.31 	0.048044 	4933 	0.047213
41.35 	0.047590 	4938 	0.047234
41.39 	0.051490 	4933 	0.050896
41.43 	0.046865 	4929 	0.046271
41.47 	0.049330 	4926 	0.048498
41.51 	0.047976 	4940 	0.047264
41.55 	0.051469 	4935 	0.051113
41.59 	0.053112 	4933 	0.052043
41.63 	0.046780 	4938 	0.046424
41.67 	0.048381 	4940 	0.047195
41.71 	0.046210 	4934 	0.045379
41.75 	0.043417 	4929 	0.043179
41.79 	0.052994 	4944 	0.052283
41.83 	0.048904 	4928 	0.048053
41.87 	0.044782 	4935 	0.044307
41.91 	0.049433 	4936 	0.048602
41.95 	0.051308 	4931 	0.050714
41.99 	0.048930 	4905 	0.048094
42.03 	0.047580 	4939 	0.046987
42.07 	0.046182 	4937 	0.045470
42.11 	0.050961 	4945 	0.050131
42.15 	0.046173 	4938 	0.045698
42.19 	0.054401 	4908 	0.053566
42.23 	0.050899 	4892 	0.049941
42.27 	0.052934 	4874 	0.052093
42.31 	0.049640 	4855 	0.049278
42.35 	0.047954 	4838 	0.047590
42.39 	0.050583 	4804 	0.049851
42.43 	0.050292 	4792 	0.049070
42.47 	0.043442 	4765 	0.043073
42.51 	0.043854 	4743 	0.043360
42.55 	0.045455 	4708 	0.045081
42.59 	0.049693 	4729 	0.048806
42.63 	0.046931 	4709 	0.046309
42.67 	0.044193 	4684 	0.043693
42.71 	0.046537 	4663 	0.046034
42.75 	0.048083 	4617 	0.047703
42.79 	0.044959 	4582 	0.044703
42.83 	0.047178 	4536 	0.046274
42.87 	0.046010 	4499 	0.044969
42.91 	0.043312 	4456 	0.042787
42.95 	0.047328 	4416 	0.046378
42.99 	0.044926 	4385 	0.043857
43.03 	0.042003 	4333 	0.041192
43.07 	0.049814 	4296 	0.049132
43.11 	0.053114 	4255 	0.052563
43.15 	0.039230 	4206 	0.038812
43.19 	0.044349 	4194 	0.043790
43.23 	0.049350 	4154 	0.048222
43.27 	0.048965 	4105 	0.048108
43.31 	0.047806 	4079 	0.046944
43.35 	0.045139 	4032 	0.044558
43.39 	0.043978 	4002 	0.042953
43.43 	0.045202 	3960 	0.044314
43.47 	0.046927 	3921 	0.046628
43.51 	0.043332 	3877 	0.043030
43.55 	0.048583 	2964 	0.047792
43.59 	0.049828 	1746 	0.049157
43.63 	0.041958 	1001 	0.041958
43.67 	0.043825 	502 	0.043825
43.71 	0.046025 	239 	0.046025
43.75 	0.000000 	16 	0.000000