File: Example_Data/25SC_s1_0042.000.dat
#F C:\frames\spec\25SC_s1_0042.000
#C title =s:42 frm:0 25SC_s1
#C wavelength =0.15406

#S 1  fr_average C:\frames\spec\25SC_s1_0042.000 C:\win32app\speccom\mask.axs chi 0 180 0 360 0.02
#C 2 theta =0.000000 to 180 deg
#C   q   =0.000000 to 81.568 nm^-1
#C  chi  =0.000000 to 360 deg
#C collumns:
#C  1 position (2theta or chi in degrees)
#C  2 average intensity (sum of all counts in the region divided with number of pixels)
#C  3 Number of pixels in region)
#C  4 error (sum of sqrt(intensity) for all pixels divided by number)
#N 4
#L TTh  Int  N_pix  Err
32.99 	0.016393 	61 	0.016393
33.03 	0.064702 	1391 	0.063859
33.07 	0.061951 	2050 	0.061665
33.11 	0.065917 	2579 	0.063381
33.15 	0.065022 	2999 	0.064045
33.19 	0.058348 	3342 	0.057472
33.23 	0.062447 	3523 	0.061422
33.27 	0.055647 	3630 	0.054679
33.31 	0.061202 	3660 	0.060402
33.35 	0.060097 	3694 	0.058327
33.39 	0.058997 	3729 	0.058055
33.43 	0.062749 	3761 	0.061971
33.47 	0.055292 	3798 	0.054521
33.51 	0.056881 	3815 	0.055806
33.55 	0.059849 	3843 	0.058782
33.59 	0.056186 	3880 	0.055280
33.63 	0.054861 	3919 	0.053192
33.67 	0.054375 	3954 	0.053635
33.71 	0.061635 	3975 	0.060456
33.75 	0.059265 	3999 	0.057946
33.79 	0.061866 	4041 	0.061431
33.83 	0.059506 	4050 	0.058204
33.87 	0.058380 	4111 	0.057074
33.91 	0.058568 	4149 	0.057580
33.95 	0.057163 	4181 	0.056019
33.99 	0.064286 	4200 	0.062752
34.03 	0.062677 	4244 	0.061711
34.07 	0.056232 	4268 	0.054860
34.11 	0.059275 	4302 	0.058435
34.15 	0.060956 	4331 	0.059739
34.19 	0.061898 	4362 	0.061227
34.23 	0.058275 	4393 	0.057741
34.27 	0.053596 	4422 	0.052933
34.31 	0.059668 	4458 	0.058091
34.35 	0.064228 	4484 	0.063575
34.39 	0.058418 	4502 	0.057616
34.43 	0.057281 	4539 	0.056378
34.47 	0.052483 	4592 	0.051972
34.51 	0.056448 	4606 	0.056194
34.55 	0.057937 	4643 	0.056801
34.59 	0.057112 	4675 	0.055734
34.63 	0.062208 	4710 	0.060840
34.67 	0.050622 	4741 	0.050252
34.71 	0.056441 	4766 	0.055335
34.75 	0.057404 	4808 	0.056064
34.79 	0.063018 	4824 	0.061561
34.83 	0.053682 	4862 	0.052597
34.87 	0.058546 	4868 	0.057342
34.91 	0.054281 	4882 	0.053441
34.95 	0.054601 	4890 	0.054122
34.99 	0.060037 	4897 	0.059080
35.03 	0.055230 	4943 	0.054519
35.07 	0.056883 	4940 	0.056053
35.11 	0.057813 	4947 	0.056747
35.15 	0.064006 	4937 	0.061752
35.19 	0.059490 	4942 	0.058779
35.23 	0.060263 	4945 	0.059197
35.27 	0.058003 	4948 	0.057056
35.31 	0.052706 	4933 	0.052113
35.35 	0.055848 	4942 	0.055137
35.39 	0.061881 	4945 	0.060459
35.43 	0.061018 	4933 	0.059811
35.47 	0.054553 	4931 	0.053484
35.51 	0.056029 	4926 	0.055197
35.55 	0.057634 	4945 	0.056449
35.59 	0.054803 	4945 	0.053855
35.63 	0.059276 	4943 	0.057617
35.67 	0.058883 	4942 	0.058290
35.71 	0.056917 	4937 	0.056324
35.75 	0.056986 	4931 	0.056135
35.79 	0.057380 	4932 	0.056391
35.83 	0.058229 	4946 	0.056926
35.87 	0.060126 	4923 	0.058460
35.91 	0.051350 	4927 	0.050636
35.95 	0.057352 	4917 	0.056280
35.99 	0.058716 	4939 	0.057530
36.03 	0.051588 	4943 	0.050621
36.07 	0.059121 	4939 	0.057935
36.11 	0.058024 	4929 	0.056717
36.15 	0.054869 	4939 	0.053921
36.19 	0.054656 	4940 	0.053351
36.23 	0.063425 	4935 	0.062119
36.27 	0.052792 	4925 	0.052554
36.31 	0.061080 	4928 	0.059891
36.35 	0.061067 	4929 	0.059621
36.39 	0.059541 	4921 	0.058231
36.43 	0.055195 	4928 	0.054244
36.47 	0.055713 	4936 	0.054764
36.51 	0.054733 	4933 	0.054021
36.55 	0.054597 	4927 	0.054122
36.59 	0.057299 	4939 	0.056587
36.63 	0.061651 	4931 	0.059988
36.67 	0.051724 	4930 	0.050774
36.71 	0.061979 	4921 	0.060789
36.75 	0.061084 	4944 	0.059524
36.79 	0.061573 	4921 	0.060859
36.83 	0.057375 	4915 	0.056184
36.87 	0.061084 	4944 	0.059662
36.91 	0.058085 	4941 	0.057256
36.95 	0.054531 	4933 	0.054056
36.99 	0.054711 	4935 	0.054118
37.03 	0.057271 	4924 	0.056795
37.07 	0.059574 	4935 	0.058862
37.11 	0.058967 	4935 	0.057542
37.15 	0.051742 	4909 	0.050787
37.19 	0.052183 	4925 	0.051707
37.23 	0.061000 	4918 	0.060286
37.27 	0.060074 	4894 	0.059355
37.31 	0.061601 	4935 	0.060038
37.35 	0.057108 	4938 	0.055922
37.39 	0.062868 	4931 	0.061185
37.43 	0.056164 	4932 	0.055808
37.47 	0.058633 	4929 	0.057444
37.51 	0.058585 	4933 	0.057616
37.55 	0.057201 	4930 	0.055894
37.59 	0.056358 	4915 	0.054809
37.63 	0.055499 	4919 	0.054765
37.67 	0.061378 	4904 	0.060901
37.71 	0.062082 	4929 	0.060893
37.75 	0.056883 	4940 	0.055815
37.79 	0.056998 	4930 	0.056523
37.83 	0.059553 	4920 	0.058581
37.87 	0.060336 	4939 	0.059862
37.91 	0.065720 	4930 	0.065126
37.95 	0.051412 	4921 	0.050817
37.99 	0.057207 	4912 	0.056611
38.03 	0.055816 	4909 	0.055219
38.07 	0.059075 	4909 	0.058121
38.11 	0.056940 	4935 	0.055734
38.15 	0.060390 	4918 	0.059557
38.19 	0.065314 	4930 	0.063651
38.23 	0.067639 	4938 	0.066690
38.27 	0.067343 	4930 	0.066630
38.31 	0.080170 	4927 	0.078387
38.35 	0.072849 	4928 	0.071898
38.39 	0.082909 	4909 	0.081338
38.43 	0.081367 	4916 	0.079580
38.47 	0.089872 	4907 	0.087067
38.51 	0.088808 	4932 	0.086432
38.55 	0.081645 	4936 	0.080340
38.59 	0.079407 	4924 	0.078217
38.63 	0.076361 	4924 	0.074219
38.67 	0.070893 	4937 	0.070063
38.71 	0.071690 	4924 	0.069886
38.75 	0.065354 	4927 	0.064522
38.79 	0.058370 	4934 	0.058014
38.83 	0.053873 	4919 	0.053039
38.87 	0.046019 	4911 	0.045065
38.91 	0.050989 	4903 	0.049555
38.95 	0.054494 	4918 	0.053660
38.99 	0.051651 	4937 	0.051295
39.03 	0.047426 	4934 	0.046832
39.07 	0.047725 	4924 	0.047131
39.11 	0.048469 	4931 	0.047756
39.15 	0.046185 	4915 	0.045470
39.19 	0.049014 	4917 	0.047803
39.23 	0.048122 	4925 	0.047765
39.27 	0.043788 	4910 	0.042933
39.31 	0.042383 	4884 	0.041784
39.35 	0.044782 	4935 	0.044545
39.39 	0.043417 	4929 	0.042585
39.43 	0.043989 	4933 	0.043277
39.47 	0.052001 	4923 	0.050811
39.51 	0.051178 	4924 	0.050464
39.55 	0.043505 	4919 	0.042909
39.59 	0.042956 	4912 	0.042240
39.63 	0.044900 	4922 	0.044305
39.67 	0.046204 	4913 	0.045489
39.71 	0.048008 	4895 	0.047051
39.75 	0.043222 	4928 	0.042271
39.79 	0.046082 	4926 	0.045844
39.83 	0.045805 	4934 	0.044617
39.87 	0.046497 	4925 	0.046260
39.91 	0.039009 	4922 	0.038771
39.95 	0.049644 	4915 	0.049286
39.99 	0.043593 	4932 	0.043237
40.03 	0.038555 	4928 	0.038080
40.07 	0.041438 	4923 	0.040962
40.11 	0.043328 	4916 	0.042851
40.15 	0.044779 	4913 	0.043706
40.19 	0.050517 	4929 	0.050161
40.23 	0.041363 	4932 	0.040412
40.27 	0.044764 	4937 	0.044289
40.31 	0.045151 	4939 	0.044914
40.35 	0.043301 	4919 	0.042468
40.39 	0.041371 	4931 	0.041015
40.43 	0.044697 	4922 	0.043983
40.47 	0.042294 	4918 	0.042055
40.51 	0.042666 	4922 	0.042428
40.55 	0.043602 	4908 	0.043244
40.59 	0.039093 	4937 	0.038262
40.63 	0.048276 	4930 	0.047682
40.67 	0.043593 	4932 	0.042643
40.71 	0.041768 	4932 	0.041293
40.75 	0.043602 	4931 	0.042889
40.79 	0.041430 	4924 	0.041073
40.83 	0.044034 	4928 	0.042845
40.87 	0.039773 	4928 	0.039278
40.91 	0.043063 	4923 	0.042468
40.95 	0.037045 	4913 	0.036448
40.99 	0.038383 	4924 	0.037789
41.03 	0.043629 	4905 	0.042912
41.07 	0.041379 	4930 	0.040904
41.11 	0.037487 	4935 	0.036894
41.15 	0.039061 	4941 	0.038824
41.19 	0.045639 	4930 	0.045164
41.23 	0.039482 	4939 	0.039007
41.27 	0.045224 	4931 	0.045105
41.31 	0.040341 	4933 	0.039509
41.35 	0.034832 	4938 	0.034357
41.39 	0.039732 	4933 	0.039139
41.43 	0.045445 	4929 	0.045326
41.47 	0.047300 	4926 	0.046468
41.51 	0.042308 	4940 	0.041833
41.55 	0.039311 	4935 	0.038599
41.59 	0.041557 	4933 	0.040963
41.63 	0.040502 	4938 	0.040146
41.67 	0.044534 	4940 	0.044060
41.71 	0.039116 	4934 	0.038167
41.75 	0.037939 	4929 	0.037582
41.79 	0.034992 	4944 	0.034518
41.83 	0.040179 	4928 	0.039941
41.87 	0.046201 	4935 	0.045488
41.91 	0.043963 	4936 	0.043369
41.95 	0.041168 	4931 	0.040693
41.99 	0.036901 	4905 	0.036543
42.03 	0.039684 	4939 	0.039328
42.07 	0.041726 	4937 	0.041251
42.11 	0.038423 	4945 	0.038067
42.15 	0.041515 	4938 	0.040922
42.19 	0.040546 	4908 	0.040188
42.23 	0.045176 	4892 	0.045056
42.27 	0.044112 	4874 	0.043751
42.31 	0.037075 	4855 	0.036955
42.35 	0.039066 	4838 	0.038460
42.39 	0.043297 	4804 	0.042688
42.43 	0.046536 	4792 	0.046169
42.47 	0.039035 	4765 	0.038543
42.51 	0.035421 	4743 	0.035174
42.55 	0.040782 	4708 	0.039911
42.59 	0.033411 	4729 	0.033039
42.63 	0.040985 	4709 	0.040737
42.67 	0.039923 	4684 	0.039548
42.71 	0.037744 	4663 	0.037367
42.75 	0.032705 	4617 	0.032578
42.79 	0.037102 	4582 	0.036590
42.83 	0.041005 	4536 	0.040618
42.87 	0.039342 	4499 	0.038951
42.91 	0.036355 	4456 	0.035435
42.95 	0.040082 	4416 	0.039286
42.99 	0.031015 	4385 	0.030614
43.03 	0.038080 	4333 	0.037945
43.07 	0.039106 	4296 	0.039106
43.11 	0.035488 	4255 	0.034799
43.15 	0.038279 	4206 	0.037722
43.19 	0.036242 	4194 	0.035684
43.23 	0.038758 	4154 	0.038617
43.27 	0.042387 	4105 	0.041817
43.31 	0.037754 	4079 	0.037467
43.35 	0.039931 	4032 	0.039640
43.39 	0.035982 	4002 	0.035543
43.43 	0.040152 	3960 	0.039856
43.47 	0.037235 	3921 	0.037235
43.51 	0.036626 	3877 	0.036148
43.55 	0.033738 	2964 	0.033541
43.59 	0.036655 	1746 	0.036320
43.63 	0.041958 	1001 	0.041373
43.67 	0.031873 	502 	0.031873
43.71 	0.037657 	239 	0.037657
43.75 	0.000000 	16 	0.000000