File: Example_Data/25SC_s1_0047.000.dat
#F C:\frames\spec\25SC_s1_0047.000
#C title =s:47 frm:0 25SC_s1
#C wavelength =0.15406

#S 1  fr_average C:\frames\spec\25SC_s1_0047.000 C:\win32app\speccom\mask.axs chi 0 180 0 360 0.02
#C 2 theta =0.000000 to 180 deg
#C   q   =0.000000 to 81.568 nm^-1
#C  chi  =0.000000 to 360 deg
#C collumns:
#C  1 position (2theta or chi in degrees)
#C  2 average intensity (sum of all counts in the region divided with number of pixels)
#C  3 Number of pixels in region)
#C  4 error (sum of sqrt(intensity) for all pixels divided by number)
#N 4
#L TTh  Int  N_pix  Err
32.99 	0.065574 	61 	0.065574
33.03 	0.070453 	1391 	0.068699
33.07 	0.057561 	2050 	0.056989
33.11 	0.063978 	2579 	0.062388
33.15 	0.054685 	2999 	0.053481
33.19 	0.064931 	3342 	0.063529
33.23 	0.061595 	3523 	0.059932
33.27 	0.065565 	3630 	0.064112
33.31 	0.063934 	3660 	0.063134
33.35 	0.063887 	3694 	0.062619
33.39 	0.056047 	3729 	0.054476
33.43 	0.061952 	3761 	0.060524
33.47 	0.064771 	3798 	0.063537
33.51 	0.050852 	3815 	0.050238
33.55 	0.056987 	3843 	0.056072
33.59 	0.061340 	3880 	0.060283
33.63 	0.060985 	3919 	0.060088
33.67 	0.054122 	3954 	0.052937
33.71 	0.061132 	3975 	0.059511
33.75 	0.064766 	3999 	0.063570
33.79 	0.050235 	4041 	0.049510
33.83 	0.053827 	4050 	0.053249
33.87 	0.057893 	4111 	0.056896
33.91 	0.057604 	4149 	0.056898
33.95 	0.059794 	4181 	0.058931
33.99 	0.064524 	4200 	0.063246
34.03 	0.050895 	4244 	0.050067
34.07 	0.059278 	4268 	0.058021
34.11 	0.054393 	4302 	0.053168
34.15 	0.061418 	4331 	0.060449
34.19 	0.052499 	4362 	0.051962
34.23 	0.061689 	4393 	0.060889
34.27 	0.062189 	4422 	0.061129
34.31 	0.061014 	4458 	0.060357
34.35 	0.057315 	4484 	0.056531
34.39 	0.055753 	4502 	0.054842
34.43 	0.055299 	4539 	0.054395
34.47 	0.063371 	4592 	0.062861
34.51 	0.054711 	4606 	0.053948
34.55 	0.053844 	4643 	0.052961
34.59 	0.060535 	4675 	0.059658
34.63 	0.050106 	4710 	0.049857
34.67 	0.059059 	4741 	0.057947
34.71 	0.057281 	4766 	0.056543
34.75 	0.059484 	4808 	0.058611
34.79 	0.061982 	4824 	0.060646
34.83 	0.054093 	4862 	0.053611
34.87 	0.057724 	4868 	0.056882
34.91 	0.056944 	4882 	0.056104
34.95 	0.056851 	4890 	0.055174
34.99 	0.057586 	4897 	0.057108
35.03 	0.057657 	4943 	0.056709
35.07 	0.062348 	4940 	0.061162
35.11 	0.059026 	4947 	0.058434
35.15 	0.057120 	4937 	0.055933
35.19 	0.057467 	4942 	0.056755
35.23 	0.055410 	4945 	0.054580
35.27 	0.061641 	4948 	0.060694
35.31 	0.058788 	4933 	0.057838
35.35 	0.056860 	4942 	0.055911
35.39 	0.060465 	4945 	0.059636
35.43 	0.057774 	4933 	0.057299
35.47 	0.054147 	4931 	0.053316
35.51 	0.056029 	4926 	0.055435
35.55 	0.053185 	4945 	0.052593
35.59 	0.057432 	4945 	0.056484
35.63 	0.054825 	4943 	0.054232
35.67 	0.057264 	4942 	0.056197
35.71 	0.058943 	4937 	0.057756
35.75 	0.062462 	4931 	0.061393
35.79 	0.050284 	4932 	0.049452
35.83 	0.059644 	4946 	0.058934
35.87 	0.053626 	4923 	0.053150
35.91 	0.056830 	4927 	0.056354
35.95 	0.061013 	4917 	0.060060
35.99 	0.058716 	4939 	0.057392
36.03 	0.054218 	4943 	0.053389
36.07 	0.060539 	4939 	0.058977
36.11 	0.053561 	4929 	0.052729
36.15 	0.056894 	4939 	0.056538
36.19 	0.058300 	4940 	0.057825
36.23 	0.054509 	4935 	0.053915
36.27 	0.057462 	4925 	0.056372
36.31 	0.057021 	4928 	0.056427
36.35 	0.061270 	4929 	0.060200
36.39 	0.062589 	4921 	0.061279
36.43 	0.057427 	4928 	0.056714
36.47 	0.054498 	4936 	0.053667
36.51 	0.058585 	4933 	0.057873
36.55 	0.062716 	4927 	0.061408
36.59 	0.060741 	4939 	0.059792
36.63 	0.059826 	4931 	0.059232
36.67 	0.052333 	4930 	0.051739
36.71 	0.059744 	4921 	0.058792
36.75 	0.055623 	4944 	0.054912
36.79 	0.057102 	4921 	0.056150
36.83 	0.055544 	4915 	0.054472
36.87 	0.060275 	4944 	0.059071
36.91 	0.066383 	4941 	0.065316
36.95 	0.060612 	4933 	0.059425
36.99 	0.053090 	4935 	0.052615
37.03 	0.059911 	4924 	0.058721
37.07 	0.056738 	4935 	0.055788
37.11 	0.057345 	4935 	0.056752
37.15 	0.060705 	4909 	0.059989
37.19 	0.059695 	4925 	0.058387
37.23 	0.054494 	4918 	0.053402
37.27 	0.054965 	4894 	0.053988
37.31 	0.057345 	4935 	0.056515
37.35 	0.054070 	4938 	0.053003
37.39 	0.060637 	4931 	0.059805
37.43 	0.060016 	4932 	0.058809
37.47 	0.052546 	4929 	0.051358
37.51 	0.051490 	4933 	0.050520
37.55 	0.062677 	4930 	0.061113
37.59 	0.057782 	4915 	0.056590
37.63 	0.054889 	4919 	0.054056
37.67 	0.058524 	4904 	0.057399
37.71 	0.056807 	4929 	0.055737
37.75 	0.054251 	4940 	0.051860
37.79 	0.053753 	4930 	0.052802
37.83 	0.048577 	4920 	0.047982
37.87 	0.057299 	4939 	0.056232
37.91 	0.046856 	4930 	0.045787
37.95 	0.052022 	4921 	0.051665
37.99 	0.057207 	4912 	0.056491
38.03 	0.051334 	4909 	0.049883
38.07 	0.056223 	4909 	0.055388
38.11 	0.059980 	4935 	0.059268
38.15 	0.064864 	4918 	0.063534
38.19 	0.067546 	4930 	0.066595
38.23 	0.062981 	4938 	0.061439
38.27 	0.070791 	4930 	0.069484
38.31 	0.077126 	4927 	0.075442
38.35 	0.074675 	4928 	0.072892
38.39 	0.079446 	4909 	0.076821
38.43 	0.084825 	4916 	0.082919
38.47 	0.077644 	4907 	0.075595
38.51 	0.086375 	4932 	0.084593
38.55 	0.090762 	4936 	0.088250
38.59 	0.071690 	4924 	0.070024
38.63 	0.077579 	4924 	0.076271
38.67 	0.071298 	4937 	0.069637
38.71 	0.065394 	4924 	0.063847
38.75 	0.062513 	4927 	0.061918
38.79 	0.062221 	4934 	0.061272
38.83 	0.053060 	4919 	0.052583
38.87 	0.053350 	4911 	0.052515
38.91 	0.055884 	4903 	0.055048
38.95 	0.051850 	4918 	0.051374
38.99 	0.047397 	4937 	0.046923
39.03 	0.051074 	4934 	0.050006
39.07 	0.049756 	4924 	0.049043
39.11 	0.050902 	4931 	0.050665
39.15 	0.048830 	4915 	0.048353
39.19 	0.045556 	4917 	0.044722
39.23 	0.047310 	4925 	0.046239
39.27 	0.048473 	4910 	0.047091
39.31 	0.048116 	4884 	0.047756
39.35 	0.048024 	4935 	0.047312
39.39 	0.045648 	4929 	0.045173
39.43 	0.045003 	4933 	0.044884
39.47 	0.040016 	4923 	0.039897
39.51 	0.041227 	4924 	0.040989
39.55 	0.040659 	4919 	0.039944
39.59 	0.044788 	4912 	0.044073
39.63 	0.049370 	4922 	0.048894
39.67 	0.038469 	4913 	0.038350
39.71 	0.042697 	4895 	0.042218
39.75 	0.045252 	4928 	0.044657
39.79 	0.050954 	4926 	0.049884
39.83 	0.050263 	4934 	0.049432
39.87 	0.042437 	4925 	0.041723
39.91 	0.042869 	4922 	0.042512
39.95 	0.040692 	4915 	0.040096
39.99 	0.040552 	4932 	0.040433
40.03 	0.049310 	4928 	0.048597
40.07 	0.043063 	4923 	0.042825
40.11 	0.040887 	4916 	0.040649
40.15 	0.050071 	4913 	0.048879
40.19 	0.045648 	4929 	0.045292
40.23 	0.039335 	4932 	0.038622
40.27 	0.043144 	4937 	0.042432
40.31 	0.041304 	4939 	0.041067
40.35 	0.043911 	4919 	0.043435
40.39 	0.045224 	4931 	0.044155
40.43 	0.044291 	4922 	0.043934
40.47 	0.038634 	4918 	0.037800
40.51 	0.044494 	4922 	0.044256
40.55 	0.041157 	4908 	0.040799
40.59 	0.047195 	4937 	0.047076
40.63 	0.044828 	4930 	0.044233
40.67 	0.042985 	4932 	0.042747
40.71 	0.042174 	4932 	0.041936
40.75 	0.042385 	4931 	0.041435
40.79 	0.048335 	4924 	0.048097
40.83 	0.038758 	4928 	0.038639
40.87 	0.043425 	4928 	0.042831
40.91 	0.042251 	4923 	0.042013
40.95 	0.045593 	4913 	0.044520
40.99 	0.043461 	4924 	0.042866
41.03 	0.040979 	4905 	0.040501
41.07 	0.042191 	4930 	0.041339
41.11 	0.045998 	4935 	0.045523
41.15 	0.044525 	4941 	0.043775
41.19 	0.039554 	4930 	0.039078
41.23 	0.041506 	4939 	0.040795
41.27 	0.040154 	4931 	0.039679
41.31 	0.044800 	4933 	0.044207
41.35 	0.040097 	4938 	0.039741
41.39 	0.041354 	4933 	0.041117
41.43 	0.037736 	4929 	0.037260
41.47 	0.044458 	4926 	0.043982
41.51 	0.037449 	4940 	0.037331
41.55 	0.040729 	4935 	0.039899
41.59 	0.042368 	4933 	0.041536
41.63 	0.036452 	4938 	0.036096
41.67 	0.041700 	4940 	0.041345
41.71 	0.040130 	4934 	0.039774
41.75 	0.038547 	4929 	0.037815
41.79 	0.042678 	4944 	0.042204
41.83 	0.038555 	4928 	0.037961
41.87 	0.040729 	4935 	0.040373
41.91 	0.038290 	4936 	0.037578
41.95 	0.039140 	4931 	0.038665
41.99 	0.039959 	4905 	0.039123
42.03 	0.040089 	4939 	0.039022
42.07 	0.037270 	4937 	0.036914
42.11 	0.041860 	4945 	0.041268
42.15 	0.039490 	4938 	0.039371
42.19 	0.042584 	4908 	0.041390
42.23 	0.042314 	4892 	0.041955
42.27 	0.034058 	4874 	0.033698
42.31 	0.035427 	4855 	0.035307
42.35 	0.039066 	4838 	0.038339
42.39 	0.042465 	4804 	0.041733
42.43 	0.041945 	4792 	0.040967
42.47 	0.036936 	4765 	0.036567
42.51 	0.041535 	4743 	0.040917
42.55 	0.038233 	4708 	0.037611
42.59 	0.039120 	4729 	0.038749
42.63 	0.038225 	4709 	0.037851
42.67 	0.041631 	4684 	0.041110
42.71 	0.041604 	4663 	0.041102
42.75 	0.034005 	4617 	0.033497
42.79 	0.039721 	4582 	0.039465
42.83 	0.038139 	4536 	0.038010
42.87 	0.038675 	4499 	0.038415
42.91 	0.037926 	4456 	0.037401
42.95 	0.040987 	4416 	0.039926
42.99 	0.036944 	4385 	0.036543
43.03 	0.039695 	4333 	0.039560
43.07 	0.042365 	4296 	0.041956
43.11 	0.035723 	4255 	0.035447
43.15 	0.034475 	4206 	0.034196
43.19 	0.036004 	4194 	0.036004
43.23 	0.035628 	4154 	0.035064
43.27 	0.040682 	4105 	0.040111
43.31 	0.035548 	4079 	0.035117
43.35 	0.038442 	4032 	0.038152
43.39 	0.039480 	4002 	0.039334
43.43 	0.033838 	3960 	0.033543
43.47 	0.039786 	3921 	0.038740
43.51 	0.038432 	3877 	0.038130
43.55 	0.037787 	2964 	0.037589
43.59 	0.036655 	1746 	0.035649
43.63 	0.034965 	1001 	0.034965
43.67 	0.041833 	502 	0.040666
43.71 	0.016736 	239 	0.016736
43.75 	0.000000 	16 	0.000000