File: Example_Data/25SC_s1_0045.004.dat
#F C:\frames\spec\25SC_s1_0045.004
#C title =s:45 frm:4 25SC_s1
#C wavelength =0.15406

#S 1  fr_average C:\frames\spec\25SC_s1_0045.004 C:\win32app\speccom\mask.axs chi 0 180 0 360 0.02
#C 2 theta =0.000000 to 180 deg
#C   q   =0.000000 to 81.568 nm^-1
#C  chi  =0.000000 to 360 deg
#C collumns:
#C  1 position (2theta or chi in degrees)
#C  2 average intensity (sum of all counts in the region divided with number of pixels)
#C  3 Number of pixels in region)
#C  4 error (sum of sqrt(intensity) for all pixels divided by number)
#N 4
#L TTh  Int  N_pix  Err
32.99 	0.032787 	61 	0.032787
33.03 	0.058950 	1391 	0.058950
33.07 	0.061951 	2050 	0.061094
33.11 	0.052734 	2579 	0.051825
33.15 	0.059687 	2999 	0.059101
33.19 	0.049372 	3342 	0.048320
33.23 	0.052796 	3523 	0.052297
33.27 	0.062259 	3630 	0.061748
33.31 	0.054918 	3660 	0.053891
33.35 	0.056849 	3694 	0.056215
33.39 	0.060070 	3729 	0.058185
33.43 	0.060622 	3761 	0.059220
33.47 	0.062665 	3798 	0.061585
33.51 	0.060026 	3815 	0.058005
33.55 	0.053864 	3843 	0.052492
33.59 	0.065206 	3880 	0.063394
33.63 	0.056647 	3919 	0.056199
33.67 	0.059686 	3954 	0.058649
33.71 	0.065660 	3975 	0.064334
33.75 	0.062516 	3999 	0.061637
33.79 	0.053452 	4041 	0.052437
33.83 	0.058519 	4050 	0.057506
33.87 	0.058866 	4111 	0.058154
33.91 	0.059050 	4149 	0.058627
33.95 	0.063143 	4181 	0.062162
33.99 	0.055714 	4200 	0.054877
34.03 	0.055844 	4244 	0.055291
34.07 	0.060918 	4268 	0.060232
34.11 	0.057183 	4302 	0.056910
34.15 	0.066036 	4331 	0.064818
34.19 	0.059606 	4362 	0.059069
34.23 	0.061461 	4393 	0.060261
34.27 	0.062867 	4422 	0.061940
34.31 	0.056528 	4458 	0.055476
34.35 	0.057092 	4484 	0.056439
34.39 	0.059973 	4502 	0.059583
34.43 	0.066314 	4539 	0.065153
34.47 	0.052918 	4592 	0.051749
34.51 	0.056448 	4606 	0.055431
34.55 	0.060521 	4643 	0.058986
34.59 	0.061390 	4675 	0.060137
34.63 	0.057113 	4710 	0.055993
34.67 	0.049779 	4741 	0.049161
34.71 	0.063995 	4766 	0.061783
34.75 	0.059900 	4808 	0.058784
34.79 	0.064677 	4824 	0.063705
34.83 	0.053476 	4862 	0.052271
34.87 	0.060394 	4868 	0.058950
34.91 	0.062679 	4882 	0.062199
34.95 	0.060327 	4890 	0.059009
34.99 	0.059833 	4897 	0.058756
35.03 	0.060490 	4943 	0.059779
35.07 	0.049595 	4940 	0.048765
35.11 	0.058824 	4947 	0.057758
35.15 	0.061373 	4937 	0.060305
35.19 	0.064346 	4942 	0.062687
35.23 	0.060061 	4945 	0.058639
35.27 	0.059418 	4948 	0.058471
35.31 	0.058180 	4933 	0.057348
35.35 	0.056253 	4942 	0.055778
35.39 	0.053185 	4945 	0.052593
35.43 	0.057977 	4933 	0.057264
35.47 	0.060637 	4931 	0.059924
35.51 	0.060495 	4926 	0.059049
35.55 	0.060870 	4945 	0.059803
35.59 	0.056623 	4945 	0.055794
35.63 	0.055432 	4943 	0.054128
35.67 	0.058276 	4942 	0.057190
35.71 	0.065627 	4937 	0.063966
35.75 	0.050902 	4931 	0.049952
35.79 	0.054339 	4932 	0.053389
35.83 	0.059038 	4946 	0.058445
35.87 	0.057079 	4923 	0.056008
35.91 	0.057236 	4927 	0.056027
35.95 	0.060606 	4917 	0.059395
35.99 	0.057097 	4939 	0.056504
36.03 	0.063524 	4943 	0.062675
36.07 	0.058919 	4939 	0.058207
36.11 	0.060661 	4929 	0.059829
36.15 	0.057299 	4939 	0.055876
36.19 	0.058907 	4940 	0.058195
36.23 	0.064235 	4935 	0.063404
36.27 	0.057868 	4925 	0.056679
36.31 	0.048701 	4928 	0.047988
36.35 	0.058430 	4929 	0.057717
36.39 	0.060760 	4921 	0.059173
36.43 	0.060674 	4928 	0.059842
36.47 	0.059157 	4936 	0.057832
36.51 	0.056963 	4933 	0.055895
36.55 	0.055409 	4927 	0.054815
36.59 	0.062563 	4939 	0.061852
36.63 	0.056784 	4931 	0.055695
36.67 	0.054970 	4930 	0.054257
36.71 	0.060150 	4921 	0.058960
36.75 	0.054005 	4944 	0.052820
36.79 	0.053444 	4921 	0.052492
36.83 	0.058596 	4915 	0.057623
36.87 	0.057039 	4944 	0.055953
36.91 	0.062943 	4941 	0.062113
36.95 	0.052504 	4933 	0.051316
36.99 	0.057548 	4935 	0.057192
37.03 	0.051787 	4924 	0.051192
37.07 	0.053495 	4935 	0.052764
37.11 	0.057953 	4935 	0.057122
37.15 	0.055001 	4909 	0.054285
37.19 	0.055228 	4925 	0.053801
37.23 	0.056120 	4918 	0.055267
37.27 	0.052922 	4894 	0.051964
37.31 	0.049443 	4935 	0.048731
37.35 	0.055488 	4938 	0.054520
37.39 	0.062056 	4931 	0.060849
37.43 	0.050689 	4932 	0.050214
37.47 	0.051329 	4929 	0.050616
37.51 	0.050882 	4933 	0.050526
37.55 	0.059838 	4930 	0.058749
37.59 	0.053713 	4915 	0.052521
37.63 	0.062614 	4919 	0.062019
37.67 	0.052610 	4904 	0.051635
37.71 	0.059647 	4929 	0.058577
37.75 	0.052834 	4940 	0.052241
37.79 	0.052738 	4930 	0.051907
37.83 	0.053049 	4920 	0.051839
37.87 	0.055274 	4939 	0.054207
37.91 	0.056389 	4930 	0.055795
37.95 	0.055477 	4921 	0.054762
37.99 	0.058225 	4912 	0.057271
38.03 	0.055001 	4909 	0.054524
38.07 	0.050112 	4909 	0.049157
38.11 	0.055724 	4935 	0.054537
38.15 	0.053274 	4918 	0.052797
38.19 	0.058621 	4930 	0.057432
38.23 	0.056703 	4938 	0.056229
38.27 	0.054564 	4930 	0.053851
38.31 	0.055003 	4927 	0.053695
38.35 	0.059862 	4928 	0.059387
38.39 	0.057038 	4909 	0.056083
38.43 	0.060822 	4916 	0.059749
38.47 	0.065621 	4907 	0.064307
38.51 	0.068532 	4932 	0.067107
38.55 	0.071110 	4936 	0.069805
38.59 	0.068643 	4924 	0.067097
38.63 	0.064379 	4924 	0.063308
38.67 	0.059145 	4937 	0.058414
38.71 	0.065597 	4924 	0.064407
38.75 	0.057236 	4927 	0.056522
38.79 	0.056344 	4934 	0.055750
38.83 	0.054279 	4919 	0.053208
38.87 	0.062513 	4911 	0.061201
38.91 	0.058536 	4903 	0.056843
38.95 	0.055917 	4918 	0.055202
38.99 	0.055297 	4937 	0.053992
39.03 	0.052493 	4934 	0.052137
39.07 	0.051584 	4924 	0.050275
39.11 	0.053742 	4931 	0.053029
39.15 	0.047406 	4915 	0.046572
39.19 	0.054301 	4917 	0.054063
39.23 	0.050964 	4925 	0.050013
39.27 	0.055193 	4910 	0.053881
39.31 	0.055487 	4884 	0.054048
39.35 	0.056940 	4935 	0.056109
39.39 	0.055386 	4929 	0.054555
39.43 	0.050476 	4933 	0.049764
39.47 	0.056673 	4923 	0.055364
39.51 	0.050772 	4924 	0.049919
39.55 	0.050823 	4919 	0.050228
39.59 	0.051710 	4912 	0.051114
39.63 	0.055465 	4922 	0.054513
39.67 	0.061877 	4913 	0.060565
39.71 	0.057610 	4895 	0.056533
39.75 	0.053571 	4928 	0.052383
39.79 	0.059277 	4926 	0.058683
39.83 	0.059992 	4934 	0.059141
39.87 	0.055431 	4925 	0.054837
39.91 	0.058919 	4922 	0.058086
39.95 	0.059410 	4915 	0.058337
39.99 	0.055353 	4932 	0.054996
40.03 	0.055398 	4928 	0.054447
40.07 	0.053423 	4923 	0.052233
40.11 	0.054516 	4916 	0.053682
40.15 	0.052717 	4913 	0.051744
40.19 	0.058024 	4929 	0.057311
40.23 	0.053122 	4932 	0.052766
40.27 	0.055702 	4937 	0.055465
40.31 	0.053250 	4939 	0.052301
40.35 	0.051840 	4919 	0.051006
40.39 	0.054350 	4931 	0.053518
40.43 	0.054653 	4922 	0.053581
40.47 	0.050834 	4918 	0.050119
40.51 	0.048761 	4922 	0.048047
40.55 	0.047270 	4908 	0.046673
40.59 	0.050030 	4937 	0.049081
40.63 	0.058824 	4930 	0.057992
40.67 	0.052311 	4932 	0.051836
40.71 	0.050081 	4932 	0.049725
40.75 	0.047860 	4931 	0.046791
40.79 	0.046710 	4924 	0.045877
40.83 	0.053166 	4928 	0.052571
40.87 	0.050731 	4928 	0.049304
40.91 	0.051188 	4923 	0.050355
40.95 	0.054142 	4913 	0.053427
40.99 	0.047929 	4924 	0.047334
41.03 	0.050765 	4905 	0.050406
41.07 	0.053144 	4930 	0.052550
41.11 	0.051672 	4935 	0.050841
41.15 	0.049787 	4941 	0.049313
41.19 	0.053753 	4930 	0.052683
41.23 	0.049605 	4939 	0.049131
41.27 	0.049888 	4931 	0.049413
41.31 	0.045003 	4933 	0.044647
41.35 	0.049008 	4938 	0.048889
41.39 	0.047841 	4933 	0.047366
41.43 	0.046663 	4929 	0.045950
41.47 	0.047706 	4926 	0.046993
41.51 	0.049595 	4940 	0.049121
41.55 	0.047822 	4935 	0.047109
41.59 	0.053517 	4933 	0.053042
41.63 	0.048198 	4938 	0.047605
41.67 	0.042308 	4940 	0.041952
41.71 	0.047426 	4934 	0.046951
41.75 	0.048489 	4929 	0.047657
41.79 	0.050566 	4944 	0.050092
41.83 	0.043019 	4928 	0.042306
41.87 	0.047011 	4935 	0.046062
41.91 	0.050851 	4936 	0.050614
41.95 	0.048874 	4931 	0.048399
41.99 	0.048726 	4905 	0.047890
42.03 	0.050213 	4939 	0.049738
42.07 	0.043549 	4937 	0.042955
42.11 	0.050961 	4945 	0.050368
42.15 	0.046173 	4938 	0.045935
42.19 	0.049307 	4908 	0.048591
42.23 	0.045176 	4892 	0.044817
42.27 	0.050267 	4874 	0.049666
42.31 	0.040783 	4855 	0.040179
42.35 	0.045680 	4838 	0.044348
42.39 	0.047252 	4804 	0.046643
42.43 	0.049249 	4792 	0.048149
42.47 	0.043652 	4765 	0.042894
42.51 	0.046806 	4743 	0.046188
42.55 	0.047154 	4708 	0.046656
42.59 	0.046310 	4729 	0.045443
42.63 	0.046082 	4709 	0.045709
42.67 	0.047182 	4684 	0.046807
42.71 	0.045893 	4663 	0.045391
42.75 	0.042452 	4617 	0.041691
42.79 	0.048232 	4582 	0.047721
42.83 	0.048501 	4536 	0.047963
42.87 	0.043565 	4499 	0.043044
42.91 	0.050943 	4456 	0.050548
42.95 	0.054121 	4416 	0.053591
42.99 	0.049031 	4385 	0.048630
43.03 	0.049158 	4333 	0.048887
43.07 	0.052374 	4296 	0.050874
43.11 	0.047474 	4255 	0.047061
43.15 	0.046125 	4206 	0.045405
43.19 	0.041726 	4194 	0.040888
43.23 	0.043813 	4154 	0.043108
43.27 	0.052619 	4105 	0.051334
43.31 	0.046580 	4079 	0.046149
43.35 	0.045387 	4032 	0.045096
43.39 	0.056972 	4002 	0.055361
43.43 	0.053283 	3960 	0.052099
43.47 	0.047437 	3921 	0.047287
43.51 	0.046428 	3877 	0.045974
43.55 	0.049258 	2964 	0.048467
43.59 	0.059565 	1746 	0.057497
43.63 	0.055944 	1001 	0.055359
43.67 	0.061753 	502 	0.061753
43.71 	0.033473 	239 	0.033473
43.75 	0.000000 	16 	0.000000