File: Example_Data/25SC_s1_0015.002.dat
#F C:\frames\spec\25SC_s1_0015.002
#C title =s:15 frm:2 25SC_s1
#C wavelength =0.15406

#S 1  fr_average C:\frames\spec\25SC_s1_0015.002 C:\win32app\speccom\mask.axs chi 0 180 0 360 0.02
#C 2 theta =0.000000 to 180 deg
#C   q   =0.000000 to 81.568 nm^-1
#C  chi  =0.000000 to 360 deg
#C collumns:
#C  1 position (2theta or chi in degrees)
#C  2 average intensity (sum of all counts in the region divided with number of pixels)
#C  3 Number of pixels in region)
#C  4 error (sum of sqrt(intensity) for all pixels divided by number)
#N 4
#L TTh  Int  N_pix  Err
32.99 	0.016393 	61 	0.016393
33.03 	0.069734 	1391 	0.068892
33.07 	0.049268 	2050 	0.048983
33.11 	0.054672 	2579 	0.053764
33.15 	0.056019 	2999 	0.055042
33.19 	0.060742 	3342 	0.059866
33.23 	0.060744 	3523 	0.059746
33.27 	0.057300 	3630 	0.056816
33.31 	0.055191 	3660 	0.054071
33.35 	0.066594 	3694 	0.065643
33.39 	0.066774 	3729 	0.065203
33.43 	0.065142 	3761 	0.063740
33.47 	0.064508 	3798 	0.064045
33.51 	0.059240 	3815 	0.058779
33.55 	0.059329 	3843 	0.057652
33.59 	0.054124 	3880 	0.053671
33.63 	0.055882 	3919 	0.054088
33.67 	0.062974 	3954 	0.061789
33.71 	0.053333 	3975 	0.052278
33.75 	0.056764 	3999 	0.055446
33.79 	0.064835 	4041 	0.063966
33.83 	0.062716 	4050 	0.062427
33.87 	0.061542 	4111 	0.060687
33.91 	0.059291 	4149 	0.058162
33.95 	0.057881 	4181 	0.057040
33.99 	0.058095 	4200 	0.057537
34.03 	0.052780 	4244 	0.052366
34.07 	0.062793 	4268 	0.061832
34.11 	0.057415 	4302 	0.056440
34.15 	0.055414 	4331 	0.054468
34.19 	0.060981 	4362 	0.059213
34.23 	0.055315 	4393 	0.053693
34.27 	0.052239 	4422 	0.051709
34.31 	0.057425 	4458 	0.056636
34.35 	0.051740 	4484 	0.051217
34.39 	0.055309 	4502 	0.054528
34.43 	0.058383 	4539 	0.057609
34.47 	0.052483 	4592 	0.051845
34.51 	0.061876 	4606 	0.061494
34.55 	0.054491 	4643 	0.053860
34.59 	0.057968 	4675 	0.056423
34.63 	0.056688 	4710 	0.055817
34.67 	0.059481 	4741 	0.058369
34.71 	0.054133 	4766 	0.053130
34.75 	0.058236 	4808 	0.056774
34.79 	0.054934 	4824 	0.054327
34.83 	0.061909 	4862 	0.060704
34.87 	0.051150 	4868 	0.050910
34.91 	0.054076 	4882 	0.053236
34.95 	0.057669 	4890 	0.056830
34.99 	0.053502 	4897 	0.052545
35.03 	0.063322 	4943 	0.062255
35.07 	0.053644 	4940 	0.053169
35.11 	0.057206 	4947 	0.056378
35.15 	0.060361 	4937 	0.059649
35.19 	0.056455 	4942 	0.055625
35.23 	0.059656 	4945 	0.059182
35.27 	0.052749 	4948 	0.051683
35.31 	0.058180 	4933 	0.057111
35.35 	0.058883 	4942 	0.058290
35.39 	0.059656 	4945 	0.058709
35.43 	0.053314 	4933 	0.052364
35.47 	0.058609 	4931 	0.057421
35.51 	0.062322 	4926 	0.061728
35.55 	0.056421 	4945 	0.055354
35.59 	0.063701 	4945 	0.062635
35.63 	0.052397 	4943 	0.051449
35.67 	0.062323 	4942 	0.061138
35.71 	0.064817 	4937 	0.063729
35.75 	0.051916 	4931 	0.050728
35.79 	0.046026 	4932 	0.045195
35.83 	0.057622 	4946 	0.057149
35.87 	0.059517 	4923 	0.058446
35.91 	0.057642 	4927 	0.056552
35.95 	0.057149 	4917 	0.056196
35.99 	0.056692 	4939 	0.055624
36.03 	0.061299 	4943 	0.060469
36.07 	0.059729 	4939 	0.058780
36.11 	0.055792 	4929 	0.055198
36.15 	0.052035 	4939 	0.051205
36.19 	0.056073 	4940 	0.055599
36.23 	0.052685 	4935 	0.051953
36.27 	0.058883 	4925 	0.057317
36.31 	0.054992 	4928 	0.053684
36.35 	0.062082 	4929 	0.061230
36.39 	0.055070 	4921 	0.054237
36.43 	0.062500 	4928 	0.061787
36.47 	0.057131 	4936 	0.056419
36.51 	0.063653 	4933 	0.062465
36.55 	0.058859 	4927 	0.057908
36.59 	0.057704 	4939 	0.056518
36.63 	0.058000 	4931 	0.057169
36.67 	0.055781 	4930 	0.054949
36.71 	0.059541 	4921 	0.057993
36.75 	0.058455 	4944 	0.057507
36.79 	0.054257 	4921 	0.053543
36.83 	0.059207 	4915 	0.057895
36.87 	0.054814 	4944 	0.053985
36.91 	0.055252 	4941 	0.054778
36.95 	0.058180 	4933 	0.057586
36.99 	0.056332 	4935 	0.056095
37.03 	0.054224 	4924 	0.053629
37.07 	0.056332 	4935 	0.055126
37.11 	0.054914 	4935 	0.053964
37.15 	0.050723 	4909 	0.049769
37.19 	0.056244 	4925 	0.055273
37.23 	0.053274 	4918 	0.052678
37.27 	0.052922 	4894 	0.052204
37.31 	0.053901 	4935 	0.053426
37.35 	0.052450 	4938 	0.050889
37.39 	0.054756 	4931 	0.053805
37.43 	0.048865 	4932 	0.048033
37.47 	0.050314 	4929 	0.049720
37.51 	0.055544 	4933 	0.054476
37.55 	0.059432 	4930 	0.058481
37.59 	0.055748 	4915 	0.054437
37.63 	0.049807 	4919 	0.049211
37.67 	0.051183 	4904 	0.050347
37.71 	0.052343 	4929 	0.051511
37.75 	0.054656 	4940 	0.053589
37.79 	0.054767 	4930 	0.054173
37.83 	0.045528 	4920 	0.045409
37.87 	0.054869 	4939 	0.054276
37.91 	0.054361 	4930 	0.053292
37.95 	0.057712 	4921 	0.056760
37.99 	0.050489 	4912 	0.050131
38.03 	0.042575 	4909 	0.041859
38.07 	0.049094 	4909 	0.048497
38.11 	0.054306 	4935 	0.053099
38.15 	0.054900 	4918 	0.054424
38.19 	0.053550 	4930 	0.052837
38.23 	0.056906 	4938 	0.055957
38.27 	0.054564 	4930 	0.053970
38.31 	0.057439 	4927 	0.056250
38.35 	0.059050 	4928 	0.057505
38.39 	0.053982 	4909 	0.053147
38.43 	0.058177 	4916 	0.056490
38.47 	0.058692 	4907 	0.058214
38.51 	0.063666 	4932 	0.062953
38.55 	0.059968 	4936 	0.058781
38.59 	0.066613 	4924 	0.065899
38.63 	0.062348 	4924 	0.061634
38.67 	0.062994 	4937 	0.062400
38.71 	0.060317 	4924 	0.058889
38.75 	0.062513 	4927 	0.061680
38.79 	0.062627 	4934 	0.060846
38.83 	0.060378 	4919 	0.059187
38.87 	0.056200 	4911 	0.055346
38.91 	0.055272 	4903 	0.054436
38.95 	0.051240 	4918 	0.050764
38.99 	0.048815 	4937 	0.048340
39.03 	0.053912 	4934 	0.053081
39.07 	0.050162 	4924 	0.049568
39.11 	0.053539 	4931 	0.052945
39.15 	0.047406 	4915 	0.046671
39.19 	0.045353 	4917 	0.044400
39.23 	0.039594 	4925 	0.039118
39.27 	0.042159 	4910 	0.041562
39.31 	0.047912 	4884 	0.047792
39.35 	0.046606 	4935 	0.045656
39.39 	0.047880 	4929 	0.047405
39.43 	0.047841 	4933 	0.046535
39.47 	0.046516 	4923 	0.046040
39.51 	0.048538 	4924 	0.047467
39.55 	0.042488 	4919 	0.042131
39.59 	0.041938 	4912 	0.041342
39.63 	0.047948 	4922 	0.047115
39.67 	0.046204 	4913 	0.046204
39.71 	0.043922 	4895 	0.043683
39.75 	0.043831 	4928 	0.042504
39.79 	0.046488 	4926 	0.045775
39.83 	0.043373 	4934 	0.042641
39.87 	0.048731 	4925 	0.048374
39.91 	0.041243 	4922 	0.040529
39.95 	0.044964 	4915 	0.044249
39.99 	0.044607 	4932 	0.044132
40.03 	0.040787 	4928 	0.040550
40.07 	0.040219 	4923 	0.039743
40.11 	0.042514 	4916 	0.041799
40.15 	0.041930 	4913 	0.041095
40.19 	0.040576 	4929 	0.040220
40.23 	0.049473 	4932 	0.048285
40.27 	0.043549 	4937 	0.042955
40.31 	0.041101 	4939 	0.040746
40.35 	0.043098 	4919 	0.042622
40.39 	0.041371 	4931 	0.040777
40.43 	0.041040 	4922 	0.040564
40.47 	0.038837 	4918 	0.038122
40.51 	0.045104 	4922 	0.044628
40.55 	0.040139 	4908 	0.039900
40.59 	0.042131 	4937 	0.041775
40.63 	0.044422 	4930 	0.043590
40.67 	0.040957 	4932 	0.040838
40.71 	0.043187 	4932 	0.042950
40.75 	0.040560 	4931 	0.040184
40.79 	0.042445 	4924 	0.042088
40.83 	0.041396 	4928 	0.040445
40.87 	0.040787 	4928 	0.040550
40.91 	0.044891 	4923 	0.043701
40.95 	0.037859 	4913 	0.037620
40.99 	0.047116 	4924 	0.046878
41.03 	0.042813 	4905 	0.041600
41.07 	0.040771 	4930 	0.040533
41.11 	0.041135 	4935 	0.040660
41.15 	0.044323 	4941 	0.043730
41.19 	0.039148 	4930 	0.038792
41.23 	0.041304 	4939 	0.040829
41.27 	0.045630 	4931 	0.044204
41.31 	0.043381 	4933 	0.043025
41.35 	0.044957 	4938 	0.044127
41.39 	0.047436 	4933 	0.046723
41.43 	0.044634 	4929 	0.043802
41.47 	0.050751 	4926 	0.050038
41.51 	0.041498 	4940 	0.041261
41.55 	0.043364 	4935 	0.043008
41.59 	0.040543 	4933 	0.040187
41.63 	0.045362 	4938 	0.044532
41.67 	0.044939 	4940 	0.043872
41.71 	0.044994 	4934 	0.044756
41.75 	0.037330 	4929 	0.036855
41.79 	0.039442 	4944 	0.038968
41.83 	0.040179 	4928 	0.039703
41.87 	0.039311 	4935 	0.038955
41.91 	0.041126 	4936 	0.040177
41.95 	0.040357 	4931 	0.040119
41.99 	0.045464 	4905 	0.044986
42.03 	0.038267 	4939 	0.037911
42.07 	0.037472 	4937 	0.037235
42.11 	0.045096 	4945 	0.044385
42.15 	0.038275 	4938 	0.038037
42.19 	0.037897 	4908 	0.037778
42.23 	0.034137 	4892 	0.034018
42.27 	0.039598 	4874 	0.039357
42.31 	0.039753 	4855 	0.039391
42.35 	0.038446 	4838 	0.038446
42.39 	0.047044 	4804 	0.045765
42.43 	0.040693 	4792 	0.040204
42.47 	0.039035 	4765 	0.038789
42.51 	0.041957 	4743 	0.041586
42.55 	0.042906 	4708 	0.042657
42.59 	0.036160 	4729 	0.036036
42.63 	0.042897 	4709 	0.042275
42.67 	0.041204 	4684 	0.040704
42.71 	0.036886 	4663 	0.036886
42.75 	0.038337 	4617 	0.037702
42.79 	0.039939 	4582 	0.039683
42.83 	0.037257 	4536 	0.036612
42.87 	0.046899 	4499 	0.046118
42.91 	0.039048 	4456 	0.038391
42.95 	0.042799 	4416 	0.042534
42.99 	0.034208 	4385 	0.033807
43.03 	0.038772 	4333 	0.038367
43.07 	0.038408 	4296 	0.037999
43.11 	0.036193 	4255 	0.035917
43.15 	0.040418 	4206 	0.040001
43.19 	0.039819 	4194 	0.039400
43.23 	0.038999 	4154 	0.038293
43.27 	0.039951 	4105 	0.038952
43.31 	0.042167 	4079 	0.041306
43.35 	0.033730 	4032 	0.033585
43.39 	0.035232 	4002 	0.034623
43.43 	0.040909 	3960 	0.040293
43.47 	0.035195 	3921 	0.034896
43.51 	0.035079 	3877 	0.034625
43.55 	0.032726 	2964 	0.032726
43.59 	0.038946 	1746 	0.038611
43.63 	0.035964 	1001 	0.035964
43.67 	0.039841 	502 	0.039841
43.71 	0.046025 	239 	0.043574
43.75 	0.000000 	16 	0.000000