File: Example_Data/25SC_s1_0008.000.dat
#F C:\frames\spec\25SC_s1_0008.000
#C title =s:8 frm:0 25SC_s1
#C wavelength =0.15406

#S 1  fr_average C:\frames\spec\25SC_s1_0008.000 C:\win32app\speccom\mask.axs chi 0 180 0 360 0.02
#C 2 theta =0.000000 to 180 deg
#C   q   =0.000000 to 81.568 nm^-1
#C  chi  =0.000000 to 360 deg
#C collumns:
#C  1 position (2theta or chi in degrees)
#C  2 average intensity (sum of all counts in the region divided with number of pixels)
#C  3 Number of pixels in region)
#C  4 error (sum of sqrt(intensity) for all pixels divided by number)
#N 4
#L TTh  Int  N_pix  Err
32.99 	0.081967 	61 	0.081967
33.03 	0.056075 	1391 	0.054390
33.07 	0.060488 	2050 	0.059584
33.11 	0.061264 	2579 	0.060128
33.15 	0.061354 	2999 	0.059759
33.19 	0.059844 	3342 	0.058063
33.23 	0.056202 	3523 	0.054872
33.27 	0.053994 	3630 	0.052542
33.31 	0.060383 	3660 	0.059902
33.35 	0.062805 	3694 	0.061853
33.39 	0.059802 	3729 	0.058702
33.43 	0.061952 	3761 	0.060861
33.47 	0.066087 	3798 	0.064237
33.51 	0.058453 	3815 	0.057379
33.55 	0.065053 	3843 	0.064139
33.59 	0.061856 	3880 	0.060950
33.63 	0.064812 	3919 	0.064215
33.67 	0.058928 	3954 	0.057866
33.71 	0.052579 	3975 	0.051400
33.75 	0.059765 	3999 	0.059033
33.79 	0.059639 	4041 	0.058310
33.83 	0.063457 	4050 	0.062155
33.87 	0.054001 	4111 	0.052719
33.91 	0.061702 	4149 	0.060431
33.95 	0.057881 	4181 	0.057320
33.99 	0.060238 	4200 	0.059401
34.03 	0.059378 	4244 	0.058136
34.07 	0.060918 	4268 	0.059134
34.11 	0.066481 	4302 	0.064960
34.15 	0.058647 	4331 	0.058106
34.19 	0.064878 	4362 	0.063267
34.23 	0.058275 	4393 	0.057474
34.27 	0.050430 	4422 	0.049635
34.31 	0.056528 	4458 	0.055608
34.35 	0.057761 	4484 	0.056977
34.39 	0.059529 	4502 	0.059139
34.43 	0.055078 	4539 	0.054046
34.47 	0.055531 	4592 	0.054383
34.51 	0.055580 	4606 	0.054308
34.55 	0.058152 	4643 	0.056638
34.59 	0.053048 	4675 	0.052422
34.63 	0.058811 	4710 	0.057940
34.67 	0.066442 	4741 	0.065453
34.71 	0.054553 	4766 	0.053939
34.75 	0.051165 	4808 	0.050068
34.79 	0.059287 	4824 	0.058437
34.83 	0.057384 	4862 	0.056058
34.87 	0.053410 	4868 	0.052688
34.91 	0.055305 	4882 	0.054225
34.95 	0.058282 	4890 	0.057803
34.99 	0.056361 	4897 	0.055165
35.03 	0.055837 	4943 	0.055125
35.07 	0.060931 	4940 	0.060338
35.11 	0.058217 	4947 	0.057250
35.15 	0.061778 	4937 	0.060098
35.19 	0.060704 	4942 	0.059381
35.23 	0.059454 	4945 	0.058388
35.27 	0.057397 	4948 	0.057042
35.31 	0.057977 	4933 	0.057502
35.35 	0.058883 	4942 	0.057698
35.39 	0.058645 	4945 	0.057323
35.43 	0.060004 	4933 	0.058935
35.47 	0.061854 	4931 	0.060527
35.51 	0.055014 	4926 	0.054063
35.55 	0.054398 	4945 	0.053194
35.59 	0.053387 	4945 	0.052795
35.63 	0.061299 	4943 	0.060469
35.67 	0.056860 	4942 	0.056267
35.71 	0.056107 	4937 	0.055395
35.75 	0.054350 	4931 	0.053162
35.79 	0.057380 	4932 	0.056430
35.83 	0.053174 	4946 	0.052345
35.87 	0.062360 	4923 	0.062003
35.91 	0.053988 	4927 	0.053632
35.95 	0.062640 	4917 	0.060714
35.99 	0.061348 	4939 	0.059787
36.03 	0.064536 	4943 	0.063706
36.07 	0.057906 	4939 	0.057195
36.11 	0.058430 	4929 	0.058192
36.15 	0.061551 	4939 	0.060721
36.19 	0.058704 	4940 	0.057756
36.23 	0.061803 	4935 	0.060735
36.27 	0.057259 	4925 	0.056545
36.31 	0.059862 	4928 	0.059268
36.35 	0.055589 	4929 	0.054619
36.39 	0.069092 	4921 	0.067763
36.43 	0.054180 	4928 	0.053467
36.47 	0.063209 	4936 	0.061409
36.51 	0.059193 	4933 	0.058481
36.55 	0.058656 	4927 	0.057824
36.59 	0.059729 	4939 	0.059136
36.63 	0.066924 	4931 	0.065973
36.67 	0.056592 	4930 	0.056236
36.71 	0.062995 	4921 	0.062262
36.75 	0.063511 	4944 	0.062326
36.79 	0.063402 	4921 	0.061835
36.83 	0.059817 	4915 	0.058605
36.87 	0.058455 	4944 	0.057507
36.91 	0.063955 	4941 	0.062868
36.95 	0.063653 	4933 	0.062208
36.99 	0.065248 	4935 	0.063943
37.03 	0.054224 	4924 	0.053748
37.07 	0.063425 	4935 	0.062356
37.11 	0.057751 	4935 	0.056900
37.15 	0.050112 	4909 	0.049754
37.19 	0.061117 	4925 	0.060284
37.23 	0.060797 	4918 	0.059368
37.27 	0.062730 	4894 	0.061653
37.31 	0.056332 	4935 	0.055620
37.35 	0.059336 	4938 	0.058149
37.39 	0.050294 	4931 	0.049443
37.43 	0.059002 	4932 	0.058052
37.47 	0.056198 	4929 	0.055010
37.51 	0.056963 	4933 	0.055657
37.55 	0.056389 	4930 	0.055677
37.59 	0.055544 	4915 	0.054591
37.63 	0.058752 	4919 	0.057918
37.67 	0.057708 	4904 	0.056275
37.71 	0.060459 	4929 	0.059132
37.75 	0.054656 	4940 	0.053707
37.79 	0.059026 	4930 	0.058076
37.83 	0.051423 	4920 	0.050351
37.87 	0.056287 	4939 	0.055694
37.91 	0.058824 	4930 	0.057259
37.95 	0.058525 	4921 	0.058168
37.99 	0.058225 	4912 	0.057151
38.03 	0.057242 	4909 	0.056406
38.07 	0.055612 	4909 	0.054777
38.11 	0.056535 	4935 	0.055823
38.15 	0.053680 	4918 	0.052847
38.19 	0.061663 	4930 	0.060000
38.23 	0.062576 	4938 	0.061271
38.27 	0.055984 	4930 	0.055508
38.31 	0.057845 	4927 	0.056636
38.35 	0.062703 	4928 	0.062227
38.39 	0.064168 	4909 	0.063094
38.43 	0.062856 	4916 	0.062022
38.47 	0.071123 	4907 	0.069810
38.51 	0.065085 	4932 	0.063759
38.55 	0.077593 	4936 	0.075813
38.59 	0.078392 	4924 	0.076012
38.63 	0.081641 	4924 	0.079737
38.67 	0.080211 	4937 	0.077838
38.71 	0.084890 	4924 	0.082868
38.75 	0.075705 	4927 	0.073902
38.79 	0.080259 	4934 	0.078953
38.83 	0.075015 	4919 	0.074182
38.87 	0.068011 	4911 	0.066221
38.91 	0.065470 	4903 	0.064275
38.95 	0.056120 	4918 	0.055406
38.99 	0.053676 	4937 	0.052608
39.03 	0.055330 	4934 	0.054124
39.07 	0.050162 	4924 	0.049687
39.11 	0.049077 	4931 	0.048483
39.15 	0.045575 	4915 	0.044860
39.19 	0.053895 	4917 	0.053180
39.23 	0.047513 	4925 	0.047156
39.27 	0.048065 	4910 	0.047469
39.31 	0.057125 	4884 	0.056526
39.35 	0.049645 	4935 	0.049171
39.39 	0.050112 	4929 	0.049517
39.43 	0.050679 	4933 	0.049373
39.47 	0.042860 	4923 	0.042384
39.51 	0.050366 	4924 	0.049533
39.55 	0.048587 	4919 	0.048230
39.59 	0.052524 	4912 	0.051789
39.63 	0.046323 	4922 	0.045728
39.67 	0.049664 	4913 	0.049068
39.71 	0.042697 	4895 	0.042457
39.75 	0.041396 	4928 	0.041039
39.79 	0.047300 	4926 	0.046468
39.83 	0.048642 	4934 	0.047930
39.87 	0.047513 	4925 	0.047156
39.91 	0.046932 	4922 	0.046337
39.95 	0.044354 	4915 	0.043262
39.99 	0.045012 	4932 	0.044062
40.03 	0.045657 	4928 	0.045539
40.07 	0.044079 	4923 	0.043841
40.11 	0.044955 	4916 	0.044717
40.15 	0.044372 	4913 	0.043895
40.19 	0.038750 	4929 	0.038136
40.23 	0.043593 	4932 	0.043237
40.27 	0.041523 	4937 	0.041286
40.31 	0.041101 	4939 	0.040746
40.35 	0.043505 	4919 	0.042890
40.39 	0.043805 	4931 	0.043686
40.43 	0.040228 	4922 	0.039156
40.47 	0.041277 	4918 	0.041039
40.51 	0.045510 	4922 	0.044796
40.55 	0.044825 	4908 	0.044586
40.59 	0.043549 	4937 	0.043193
40.63 	0.040974 	4930 	0.040736
40.67 	0.045620 	4932 	0.045145
40.71 	0.041160 	4932 	0.040685
40.75 	0.045630 	4931 	0.045155
40.79 	0.043867 	4924 	0.042895
40.83 	0.044440 	4928 	0.043846
40.87 	0.044643 	4928 	0.044167
40.91 	0.046516 	4923 	0.045545
40.95 	0.048850 	4913 	0.048353
40.99 	0.040617 	4924 	0.040498
41.03 	0.038940 	4905 	0.038701
41.07 	0.045436 	4930 	0.044723
41.11 	0.039108 	4935 	0.038634
41.15 	0.037442 	4941 	0.037086
41.19 	0.040568 	4930 	0.039855
41.23 	0.043329 	4939 	0.042736
41.27 	0.045630 	4931 	0.044917
41.31 	0.045408 	4933 	0.044933
41.35 	0.041920 	4938 	0.041564
41.39 	0.041151 	4933 	0.040914
41.43 	0.038953 	4929 	0.038597
41.47 	0.042631 	4926 	0.041917
41.51 	0.039879 	4940 	0.039641
41.55 	0.042553 	4935 	0.042197
41.59 	0.042976 	4933 	0.041907
41.63 	0.045160 	4938 	0.044804
41.67 	0.040688 	4940 	0.040214
41.71 	0.040940 	4934 	0.040584
41.75 	0.042199 	4929 	0.041843
41.79 	0.042273 	4944 	0.041918
41.83 	0.041599 	4928 	0.041242
41.87 	0.042553 	4935 	0.042197
41.91 	0.038290 	4936 	0.037815
41.95 	0.038937 	4931 	0.038581
41.99 	0.040571 	4905 	0.040093
42.03 	0.040899 	4939 	0.040543
42.07 	0.042333 	4937 	0.041740
42.11 	0.042872 	4945 	0.042279
42.15 	0.046375 	4938 	0.045545
42.19 	0.041565 	4908 	0.041207
42.23 	0.037817 	4892 	0.036979
42.27 	0.038982 	4874 	0.038742
42.31 	0.043254 	4855 	0.043134
42.35 	0.040306 	4838 	0.039701
42.39 	0.033514 	4804 	0.033026
42.43 	0.036311 	4792 	0.035944
42.47 	0.039035 	4765 	0.038789
42.51 	0.039216 	4743 	0.038722
42.55 	0.041206 	4708 	0.040460
42.59 	0.035737 	4729 	0.035737
42.63 	0.039074 	4709 	0.038577
42.67 	0.040991 	4684 	0.040240
42.71 	0.040103 	4663 	0.039600
42.75 	0.037037 	4617 	0.036783
42.79 	0.043213 	4582 	0.042573
42.83 	0.038360 	4536 	0.038102
42.87 	0.041343 	4499 	0.041212
42.91 	0.040619 	4456 	0.039699
42.95 	0.037364 	4416 	0.036834
42.99 	0.041505 	4385 	0.041238
43.03 	0.044080 	4333 	0.043810
43.07 	0.040270 	4296 	0.039861
43.11 	0.042538 	4255 	0.041988
43.15 	0.041132 	4206 	0.040853
43.19 	0.038388 	4194 	0.037550
43.23 	0.038517 	4154 	0.038235
43.27 	0.038002 	4105 	0.037860
43.31 	0.043148 	4079 	0.042573
43.35 	0.038938 	4032 	0.038938
43.39 	0.038731 	4002 	0.038292
43.43 	0.038636 	3960 	0.038488
43.47 	0.030349 	3921 	0.030200
43.51 	0.042817 	3877 	0.042666
43.55 	0.038799 	2964 	0.038799
43.59 	0.040092 	1746 	0.039421
43.63 	0.031968 	1001 	0.031383
43.67 	0.041833 	502 	0.041833
43.71 	0.058577 	239 	0.058577
43.75 	0.125000 	16 	0.125000