File: Example_Data/25SC_s1_0041.003.dat
#F C:\frames\spec\25SC_s1_0041.003
#C title =s:41 frm:3 25SC_s1
#C wavelength =0.15406

#S 1  fr_average C:\frames\spec\25SC_s1_0041.003 C:\win32app\speccom\mask.axs chi 0 180 0 360 0.02
#C 2 theta =0.000000 to 180 deg
#C   q   =0.000000 to 81.568 nm^-1
#C  chi  =0.000000 to 360 deg
#C collumns:
#C  1 position (2theta or chi in degrees)
#C  2 average intensity (sum of all counts in the region divided with number of pixels)
#C  3 Number of pixels in region)
#C  4 error (sum of sqrt(intensity) for all pixels divided by number)
#N 4
#L TTh  Int  N_pix  Err
32.99 	0.114754 	61 	0.114754
33.03 	0.053199 	1391 	0.051936
33.07 	0.055610 	2050 	0.055038
33.11 	0.055448 	2579 	0.054312
33.15 	0.063021 	2999 	0.062044
33.19 	0.065230 	3342 	0.063069
33.23 	0.060460 	3523 	0.058465
33.27 	0.058953 	3630 	0.057985
33.31 	0.065574 	3660 	0.062853
33.35 	0.061180 	3694 	0.059912
33.39 	0.052561 	3729 	0.050467
33.43 	0.056368 	3761 	0.055278
33.47 	0.064771 	3798 	0.063383
33.51 	0.063696 	3815 	0.061700
33.55 	0.055165 	3843 	0.054098
33.59 	0.060567 	3880 	0.059183
33.63 	0.056392 	3919 	0.055022
33.67 	0.054375 	3954 	0.053462
33.71 	0.059119 	3975 	0.058530
33.75 	0.063016 	3999 	0.061380
33.79 	0.067063 	4041 	0.065299
33.83 	0.057531 	4050 	0.057097
33.87 	0.064948 	4111 	0.063380
33.91 	0.058327 	4149 	0.056892
33.95 	0.057881 	4181 	0.056760
33.99 	0.058095 	4200 	0.057258
34.03 	0.060320 	4244 	0.059216
34.07 	0.060216 	4268 	0.059804
34.11 	0.059042 	4302 	0.058498
34.15 	0.065574 	4331 	0.064492
34.19 	0.058918 	4362 	0.058246
34.23 	0.059185 	4393 	0.058252
34.27 	0.058118 	4422 	0.057059
34.31 	0.058771 	4458 	0.057961
34.35 	0.063782 	4484 	0.062345
34.39 	0.056864 	4502 	0.055953
34.43 	0.058163 	4539 	0.056851
34.47 	0.058145 	4592 	0.057379
34.51 	0.052757 	4606 	0.052121
34.55 	0.051906 	4643 	0.051149
34.59 	0.054759 	4675 	0.054133
34.63 	0.055839 	4710 	0.055341
34.67 	0.055052 	4741 	0.054310
34.71 	0.062107 	4766 	0.060263
34.75 	0.058652 	4808 	0.058043
34.79 	0.052861 	4824 	0.052375
34.83 	0.057795 	4862 	0.055447
34.87 	0.059573 	4868 	0.058851
34.91 	0.059812 	4882 	0.058732
34.95 	0.057873 	4890 	0.056555
34.99 	0.054319 	4897 	0.053123
35.03 	0.057253 	4943 	0.056423
35.07 	0.060729 	4940 	0.059899
35.11 	0.058217 	4947 	0.057250
35.15 	0.058538 	4937 	0.057826
35.19 	0.064751 	4942 	0.063329
35.23 	0.059858 	4945 	0.059029
35.27 	0.057195 	4948 	0.056248
35.31 	0.057774 	4933 	0.056587
35.35 	0.060097 	4942 	0.058774
35.39 	0.056825 	4945 	0.056114
35.43 	0.063450 	4933 	0.062144
35.47 	0.058609 	4931 	0.058015
35.51 	0.051766 	4926 	0.051053
35.55 	0.063094 	4945 	0.062028
35.59 	0.055410 	4945 	0.054580
35.63 	0.054016 	4943 	0.053305
35.67 	0.055038 	4942 	0.054209
35.71 	0.057930 	4937 	0.057218
35.75 	0.058406 	4931 	0.057337
35.79 	0.056367 	4932 	0.055278
35.83 	0.051759 	4946 	0.051167
35.87 	0.054235 	4923 	0.053402
35.91 	0.057236 	4927 	0.055928
35.95 	0.056945 	4917 	0.055397
35.99 	0.057097 	4939 	0.056622
36.03 	0.057253 	4943 	0.056305
36.07 	0.056084 	4939 	0.054780
36.11 	0.057618 	4929 	0.056905
36.15 	0.057704 	4939 	0.056518
36.19 	0.055466 	4940 	0.054517
36.23 	0.060588 	4935 	0.060232
36.27 	0.060305 	4925 	0.058639
36.31 	0.053166 	4928 	0.052096
36.35 	0.056401 	4929 	0.055569
36.39 	0.055477 	4921 	0.054881
36.43 	0.053166 	4928 	0.052334
36.47 	0.058752 	4936 	0.057803
36.51 	0.048044 	4933 	0.047213
36.55 	0.057236 	4927 	0.055670
36.59 	0.044543 	4939 	0.043950
36.63 	0.048469 	4931 	0.047756
36.67 	0.049493 	4930 	0.049018
36.71 	0.060354 	4921 	0.058925
36.75 	0.052791 	4944 	0.052317
36.79 	0.059338 	4921 	0.058128
36.83 	0.055951 	4915 	0.055355
36.87 	0.057443 	4944 	0.056732
36.91 	0.054847 	4941 	0.053642
36.95 	0.054328 	4933 	0.053378
36.99 	0.051672 	4935 	0.050129
37.03 	0.056255 	4924 	0.055779
37.07 	0.054306 	4935 	0.053119
37.11 	0.054914 	4935 	0.054083
37.15 	0.050316 	4909 	0.049719
37.19 	0.053604 	4925 	0.052653
37.23 	0.057544 	4918 	0.056948
37.27 	0.053126 	4894 	0.051929
37.31 	0.055319 	4935 	0.054607
37.35 	0.053463 	4938 	0.052751
37.39 	0.050091 	4931 	0.049497
37.43 	0.051906 	4932 	0.051193
37.47 	0.052546 	4929 	0.051595
37.51 	0.048449 	4933 	0.048093
37.55 	0.046045 	4930 	0.045332
37.59 	0.056358 	4915 	0.055405
37.63 	0.044115 	4919 	0.043281
37.67 	0.057096 	4904 	0.056857
37.71 	0.050314 	4929 	0.049601
37.75 	0.053441 	4940 	0.052611
37.79 	0.051927 	4930 	0.051333
37.83 	0.051829 	4920 	0.050877
37.87 	0.048795 	4939 	0.048321
37.91 	0.055578 	4930 	0.054509
37.95 	0.055477 	4921 	0.055119
37.99 	0.049674 	4912 	0.048601
38.03 	0.055001 	4909 	0.054046
38.07 	0.051334 	4909 	0.050618
38.11 	0.055927 	4935 	0.054977
38.15 	0.048597 	4918 	0.047882
38.19 	0.055172 	4930 	0.053984
38.23 	0.055691 	4938 	0.054742
38.27 	0.052535 	4930 	0.052060
38.31 	0.057033 	4927 	0.056082
38.35 	0.057427 	4928 	0.056476
38.39 	0.056020 	4909 	0.055065
38.43 	0.064076 	4916 	0.063123
38.47 	0.056450 	4907 	0.055853
38.51 	0.063666 	4932 	0.062221
38.55 	0.069287 	4936 	0.067863
38.59 	0.062348 	4924 	0.061515
38.63 	0.056458 	4924 	0.055863
38.67 	0.051246 	4937 	0.050415
38.71 	0.056255 	4924 	0.055184
38.75 	0.058047 	4927 	0.057215
38.79 	0.054317 	4934 	0.053486
38.83 	0.052450 	4919 	0.051497
38.87 	0.050092 	4911 	0.049734
38.91 	0.055884 	4903 	0.055048
38.95 	0.052054 	4918 	0.051220
38.99 	0.054892 	4937 	0.053705
39.03 	0.055330 	4934 	0.054737
39.07 	0.051178 	4924 	0.050226
39.11 	0.048469 	4931 	0.048231
39.15 	0.050051 	4915 	0.049336
39.19 	0.045963 	4917 	0.045129
39.23 	0.046091 	4925 	0.045021
39.27 	0.047047 	4910 	0.045973
39.31 	0.046683 	4884 	0.046323
39.35 	0.044174 	4935 	0.043324
39.39 	0.050314 	4929 	0.049344
39.43 	0.049260 	4933 	0.048429
39.47 	0.045501 	4923 	0.044906
39.51 	0.047319 	4924 	0.046962
39.55 	0.047977 	4919 	0.047501
39.59 	0.047231 	4912 	0.046635
39.63 	0.046932 	4922 	0.046099
39.67 	0.052310 	4913 	0.051714
39.71 	0.044331 	4895 	0.044092
39.75 	0.052760 	4928 	0.052403
39.79 	0.046894 	4926 	0.045824
39.83 	0.046210 	4934 	0.046091
39.87 	0.042640 	4925 	0.042164
39.91 	0.041447 	4922 	0.040732
39.95 	0.046592 	4915 	0.045758
39.99 	0.049676 	4932 	0.049200
40.03 	0.048093 	4928 	0.047617
40.07 	0.047735 	4923 	0.046902
40.11 	0.040887 	4916 	0.040410
40.15 	0.047425 	4913 	0.046591
40.19 	0.049300 	4929 	0.048825
40.23 	0.041971 	4932 	0.041733
40.27 	0.042941 	4937 	0.041992
40.31 	0.046568 	4939 	0.046568
40.35 	0.040455 	4919 	0.039979
40.39 	0.046644 	4931 	0.046050
40.43 	0.045916 	4922 	0.045083
40.47 	0.049410 	4918 	0.048934
40.51 	0.046323 	4922 	0.045013
40.55 	0.045232 	4908 	0.044497
40.59 	0.048005 	4937 	0.047293
40.63 	0.049087 	4930 	0.048137
40.67 	0.044201 	4932 	0.043607
40.71 	0.047445 	4932 	0.046851
40.75 	0.042791 	4931 	0.042315
40.79 	0.045695 	4924 	0.045100
40.83 	0.044440 	4928 	0.043964
40.87 	0.049107 	4928 	0.048018
40.91 	0.046719 	4923 	0.046006
40.95 	0.044372 	4913 	0.043537
40.99 	0.045695 	4924 	0.045219
41.03 	0.050153 	4905 	0.049197
41.07 	0.041785 	4930 	0.041191
41.11 	0.041945 	4935 	0.041589
41.15 	0.040073 	4941 	0.039717
41.19 	0.046653 	4930 	0.045940
41.23 	0.041101 	4939 	0.040746
41.27 	0.046441 	4931 	0.045609
41.31 	0.044395 	4933 	0.043564
41.35 	0.040705 	4938 	0.040349
41.39 	0.043989 	4933 	0.043752
41.43 	0.038344 	4929 	0.037631
41.47 	0.042022 	4926 	0.041427
41.51 	0.042308 	4940 	0.042071
41.55 	0.044377 	4935 	0.043546
41.59 	0.042165 	4933 	0.041571
41.63 	0.038072 	4938 	0.037598
41.67 	0.043927 	4940 	0.042860
41.71 	0.047831 	4934 	0.047594
41.75 	0.041996 	4929 	0.041026
41.79 	0.043487 	4944 	0.043132
41.83 	0.041802 	4928 	0.041089
41.87 	0.042553 	4935 	0.041722
41.91 	0.046799 	4936 	0.046087
41.95 	0.043196 	4931 	0.042721
41.99 	0.040163 	4905 	0.039685
42.03 	0.044948 	4939 	0.044355
42.07 	0.038282 	4937 	0.038045
42.11 	0.038220 	4945 	0.037865
42.15 	0.042932 	4938 	0.042458
42.19 	0.034026 	4908 	0.033907
42.23 	0.040065 	4892 	0.039706
42.27 	0.039598 	4874 	0.039237
42.31 	0.041607 	4855 	0.041124
42.35 	0.042786 	4838 	0.042302
42.39 	0.038926 	4804 	0.038560
42.43 	0.041110 	4792 	0.040743
42.47 	0.041133 	4765 	0.040642
42.51 	0.042378 	4743 	0.041864
42.55 	0.037171 	4708 	0.036673
42.59 	0.041446 	4729 	0.041075
42.63 	0.039286 	4709 	0.038291
42.67 	0.042912 	4684 	0.042537
42.71 	0.045893 	4663 	0.044888
42.75 	0.040936 	4617 	0.040555
42.79 	0.041903 	4582 	0.041392
42.83 	0.040564 	4536 	0.039790
42.87 	0.045566 	4499 	0.045175
42.91 	0.041966 	4456 	0.041046
42.95 	0.046649 	4416 	0.046383
42.99 	0.043330 	4385 	0.042239
43.03 	0.038772 	4333 	0.038367
43.07 	0.033985 	4296 	0.033576
43.11 	0.041363 	4255 	0.040812
43.15 	0.038041 	4206 	0.037623
43.19 	0.038865 	4194 	0.038446
43.23 	0.040443 	4154 	0.040020
43.27 	0.038733 	4105 	0.038448
43.31 	0.038735 	4079 	0.038591
43.35 	0.041171 	4032 	0.040880
43.39 	0.037481 	4002 	0.037042
43.43 	0.040152 	3960 	0.039708
43.47 	0.034940 	3921 	0.034342
43.51 	0.042301 	3877 	0.042301
43.55 	0.035762 	2964 	0.035565
43.59 	0.042383 	1746 	0.041712
43.63 	0.049950 	1001 	0.049950
43.67 	0.025896 	502 	0.025896
43.71 	0.041841 	239 	0.041841
43.75 	0.000000 	16 	0.000000