File: Example_Data/25SC_s1_0007.000.dat
#F C:\frames\spec\25SC_s1_0007.000
#C title =s:7 frm:0 25SC_s1
#C wavelength =0.15406

#S 1  fr_average C:\frames\spec\25SC_s1_0007.000 C:\win32app\speccom\mask.axs chi 0 180 0 360 0.02
#C 2 theta =0.000000 to 180 deg
#C   q   =0.000000 to 81.568 nm^-1
#C  chi  =0.000000 to 360 deg
#C collumns:
#C  1 position (2theta or chi in degrees)
#C  2 average intensity (sum of all counts in the region divided with number of pixels)
#C  3 Number of pixels in region)
#C  4 error (sum of sqrt(intensity) for all pixels divided by number)
#N 4
#L TTh  Int  N_pix  Err
32.99 	0.081967 	61 	0.081967
33.03 	0.061107 	1391 	0.059844
33.07 	0.052195 	2050 	0.051052
33.11 	0.068631 	2579 	0.067496
33.15 	0.066689 	2999 	0.065712
33.19 	0.061640 	3342 	0.060588
33.23 	0.058757 	3523 	0.057759
33.27 	0.061708 	3630 	0.060578
33.31 	0.050546 	3660 	0.049426
33.35 	0.055495 	3694 	0.054544
33.39 	0.064360 	3729 	0.063732
33.43 	0.059293 	3761 	0.057398
33.47 	0.057662 	3798 	0.057199
33.51 	0.054784 	3815 	0.053402
33.55 	0.060630 	3843 	0.060172
33.59 	0.052577 	3880 	0.051520
33.63 	0.060475 	3919 	0.058382
33.67 	0.061710 	3954 	0.060821
33.71 	0.063396 	3975 	0.062070
33.75 	0.064266 	3999 	0.063680
33.79 	0.061123 	4041 	0.060399
33.83 	0.055309 	4050 	0.054585
33.87 	0.068110 	4111 	0.067255
33.91 	0.063871 	4149 	0.063306
33.95 	0.060033 	4181 	0.059193
33.99 	0.058571 	4200 	0.057177
34.03 	0.053959 	4244 	0.053406
34.07 	0.058575 	4268 	0.057477
34.11 	0.056020 	4302 	0.054931
34.15 	0.053567 	4331 	0.053162
34.19 	0.052270 	4362 	0.051732
34.23 	0.051218 	4393 	0.050818
34.27 	0.060380 	4422 	0.059696
34.31 	0.061238 	4458 	0.060056
34.35 	0.060883 	4484 	0.059555
34.39 	0.058418 	4502 	0.057096
34.43 	0.055299 	4539 	0.054137
34.47 	0.053789 	4592 	0.052896
34.51 	0.054494 	4606 	0.054240
34.55 	0.058367 	4643 	0.056959
34.59 	0.059679 	4675 	0.058677
34.63 	0.057962 	4710 	0.056718
34.67 	0.061169 	4741 	0.059542
34.71 	0.054973 	4766 	0.054235
34.75 	0.064060 	4808 	0.063451
34.79 	0.054104 	4824 	0.053254
34.83 	0.054916 	4862 	0.054193
34.87 	0.060600 	4868 	0.059858
34.91 	0.057149 	4882 	0.056549
34.95 	0.057873 	4890 	0.056795
34.99 	0.063508 	4897 	0.062551
35.03 	0.056848 	4943 	0.055900
35.07 	0.062955 	4940 	0.062007
35.11 	0.057409 	4947 	0.056935
35.15 	0.060563 	4937 	0.059851
35.19 	0.058883 	4942 	0.057441
35.23 	0.055005 	4945 	0.053820
35.27 	0.062045 	4948 	0.061217
35.31 	0.065275 	4933 	0.064206
35.35 	0.061514 	4942 	0.060328
35.39 	0.059050 	4945 	0.058576
35.43 	0.061018 	4933 	0.060305
35.47 	0.053944 	4931 	0.053232
35.51 	0.062728 	4926 	0.062015
35.55 	0.062285 	4945 	0.061337
35.59 	0.055005 	4945 	0.054413
35.63 	0.054218 	4943 	0.053033
35.67 	0.061109 	4942 	0.060398
35.71 	0.056917 	4937 	0.056087
35.75 	0.060434 	4931 	0.059602
35.79 	0.060219 	4932 	0.058912
35.83 	0.055398 	4946 	0.054214
35.87 	0.057282 	4923 	0.056330
35.91 	0.059671 	4927 	0.058601
35.95 	0.061420 	4917 	0.060109
35.99 	0.059931 	4939 	0.059338
36.03 	0.056646 	4943 	0.055342
36.07 	0.059324 	4939 	0.058494
36.11 	0.059444 	4929 	0.058731
36.15 	0.064183 	4939 	0.063077
36.19 	0.062955 	4940 	0.062244
36.23 	0.058359 	4935 	0.057152
36.27 	0.059695 	4925 	0.058268
36.31 	0.064529 	4928 	0.063578
36.35 	0.059850 	4929 	0.059256
36.39 	0.064418 	4921 	0.063327
36.43 	0.055195 	4928 	0.054600
36.47 	0.059968 	4936 	0.059018
36.51 	0.062437 	4933 	0.061249
36.55 	0.062513 	4927 	0.061086
36.59 	0.056692 	4939 	0.055387
36.63 	0.065301 	4931 	0.064113
36.67 	0.063083 	4930 	0.061638
36.71 	0.066450 	4921 	0.065617
36.75 	0.062702 	4944 	0.061754
36.79 	0.066450 	4921 	0.065121
36.83 	0.066938 	4915 	0.065746
36.87 	0.065332 	4944 	0.064009
36.91 	0.061728 	4941 	0.060306
36.95 	0.057369 	4933 	0.056043
36.99 	0.061398 	4935 	0.060330
37.03 	0.059708 	4924 	0.057904
37.07 	0.060588 	4935 	0.059401
37.11 	0.057143 	4935 	0.056787
37.15 	0.060501 	4909 	0.058950
37.19 	0.061320 	4925 	0.060487
37.23 	0.065270 	4918 	0.064675
37.27 	0.058848 	4894 	0.057631
37.31 	0.054509 	4935 	0.053796
37.35 	0.062576 	4938 	0.061627
37.39 	0.053133 	4931 	0.052658
37.43 	0.058800 	4932 	0.058562
37.47 	0.055995 	4929 	0.055163
37.51 	0.062842 	4933 	0.061536
37.55 	0.064097 	4930 	0.062790
37.59 	0.056562 	4915 	0.055727
37.63 	0.055092 	4919 	0.054378
37.67 	0.058116 	4904 	0.057160
37.71 	0.059647 	4929 	0.058696
37.75 	0.053036 	4940 	0.052444
37.79 	0.056389 	4930 	0.055677
37.83 	0.054878 	4920 	0.054263
37.87 	0.057704 	4939 	0.057111
37.91 	0.061055 	4930 	0.060104
37.95 	0.053648 	4921 	0.052576
37.99 	0.051710 	4912 	0.051472
38.03 	0.053371 	4909 	0.052417
38.07 	0.053371 	4909 	0.052894
38.11 	0.058967 	4935 	0.057879
38.15 	0.058357 	4918 	0.057047
38.19 	0.060649 	4930 	0.059204
38.23 	0.056703 	4938 	0.055873
38.27 	0.060041 	4930 	0.059209
38.31 	0.059468 	4927 	0.058993
38.35 	0.057833 	4928 	0.056387
38.39 	0.059686 	4909 	0.058970
38.43 	0.073637 	4916 	0.072326
38.47 	0.075606 	4907 	0.073896
38.51 	0.070762 	4932 	0.069575
38.55 	0.079417 	4936 	0.077755
38.59 	0.086515 	4924 	0.084493
38.63 	0.084281 	4924 	0.082497
38.67 	0.085274 	4937 	0.083851
38.71 	0.080829 	4924 	0.078568
38.75 	0.079765 	4927 	0.078100
38.79 	0.075395 	4934 	0.073971
38.83 	0.070136 	4919 	0.067953
38.87 	0.067196 	4911 	0.065884
38.91 	0.062411 	4903 	0.061813
38.95 	0.057747 	4918 	0.056080
38.99 	0.055094 	4937 	0.054026
39.03 	0.052290 	4934 	0.051578
39.07 	0.050366 	4924 	0.049870
39.11 	0.047252 	4931 	0.047014
39.15 	0.051272 	4915 	0.050318
39.19 	0.049217 	4917 	0.048383
39.23 	0.048325 	4925 	0.046898
39.27 	0.049898 	4910 	0.049421
39.31 	0.048116 	4884 	0.047517
39.35 	0.048835 	4935 	0.047410
39.39 	0.047880 	4929 	0.047523
39.43 	0.048652 	4933 	0.047939
39.47 	0.048141 	4923 	0.047665
39.51 	0.046710 	4924 	0.045739
39.55 	0.047571 	4919 	0.046737
39.59 	0.041938 	4912 	0.041700
39.63 	0.046119 	4922 	0.045267
39.67 	0.051089 	4913 	0.050493
39.71 	0.045965 	4895 	0.045128
39.75 	0.046469 	4928 	0.045399
39.79 	0.046488 	4926 	0.045537
39.83 	0.040940 	4934 	0.040703
39.87 	0.048325 	4925 	0.047968
39.91 	0.048151 	4922 	0.047437
39.95 	0.045982 	4915 	0.045863
39.99 	0.044404 	4932 	0.044048
40.03 	0.048701 	4928 	0.048107
40.07 	0.042454 	4923 	0.041859
40.11 	0.040683 	4916 	0.040326
40.15 	0.044983 	4913 	0.044744
40.19 	0.047068 	4929 	0.046355
40.23 	0.045215 	4932 	0.044859
40.27 	0.041321 	4937 	0.040471
40.31 	0.042924 	4939 	0.042331
40.35 	0.043505 	4919 	0.043028
40.39 	0.043399 	4931 	0.042449
40.43 	0.042666 	4922 	0.041951
40.47 	0.043514 	4918 	0.042918
40.51 	0.041650 	4922 	0.040916
40.55 	0.045844 	4908 	0.045366
40.59 	0.042536 	4937 	0.041468
40.63 	0.038134 	4930 	0.037896
40.67 	0.045012 	4932 	0.044418
40.71 	0.040349 	4932 	0.039992
40.75 	0.044616 	4931 	0.044141
40.79 	0.048538 	4924 	0.047705
40.83 	0.043425 	4928 	0.043069
40.87 	0.045049 	4928 	0.044573
40.91 	0.042657 	4923 	0.042062
40.95 	0.039894 	4913 	0.039656
40.99 	0.039602 	4924 	0.039126
41.03 	0.044852 	4905 	0.044374
41.07 	0.041785 	4930 	0.041072
41.11 	0.039919 	4935 	0.039444
41.15 	0.045942 	4941 	0.045468
41.19 	0.050507 	4930 	0.049794
41.23 	0.039077 	4939 	0.038484
41.27 	0.039343 	4931 	0.038630
41.31 	0.046219 	4933 	0.045982
41.35 	0.040907 	4938 	0.040077
41.39 	0.038516 	4933 	0.037665
41.43 	0.040982 	4929 	0.040388
41.47 	0.042022 	4926 	0.041546
41.51 	0.045749 	4940 	0.044919
41.55 	0.036879 	4935 	0.036286
41.59 	0.041557 	4933 	0.041438
41.63 	0.041110 	4938 	0.040754
41.67 	0.045142 	4940 	0.044430
41.71 	0.043575 	4934 	0.042863
41.75 	0.042199 	4929 	0.041486
41.79 	0.036003 	4944 	0.035885
41.83 	0.042005 	4928 	0.041886
41.87 	0.044985 	4935 	0.044273
41.91 	0.043963 	4936 	0.043369
41.95 	0.038937 	4931 	0.038700
41.99 	0.040775 	4905 	0.040058
42.03 	0.038267 	4939 	0.037911
42.07 	0.045372 	4937 	0.044541
42.11 	0.039029 	4945 	0.038911
42.15 	0.044957 	4938 	0.044127
42.19 	0.044417 	4908 	0.044179
42.23 	0.040883 	4892 	0.040045
42.27 	0.034263 	4874 	0.033903
42.31 	0.044490 	4855 	0.043766
42.35 	0.035965 	4838 	0.035844
42.39 	0.038301 	4804 	0.037448
42.43 	0.041110 	4792 	0.040866
42.47 	0.037985 	4765 	0.037494
42.51 	0.040902 	4743 	0.040655
42.55 	0.036746 	4708 	0.036373
42.59 	0.035948 	4729 	0.035577
42.63 	0.041198 	4709 	0.040576
42.67 	0.043553 	4684 	0.043427
42.71 	0.043105 	4663 	0.042603
42.75 	0.042885 	4617 	0.042758
42.79 	0.040157 	4582 	0.039774
42.83 	0.040785 	4536 	0.040527
42.87 	0.037564 	4499 	0.037173
42.91 	0.034336 	4456 	0.034204
42.95 	0.036685 	4416 	0.036154
42.99 	0.041733 	4385 	0.041600
43.03 	0.037849 	4333 	0.037579
43.07 	0.040503 	4296 	0.039685
43.11 	0.035253 	4255 	0.034564
43.15 	0.041607 	4206 	0.041189
43.19 	0.041726 	4194 	0.041168
43.23 	0.038758 	4154 	0.038335
43.27 	0.037272 	4105 	0.036986
43.31 	0.039470 	4079 	0.039183
43.35 	0.038690 	4032 	0.038255
43.39 	0.033733 	4002 	0.033294
43.43 	0.043939 	3960 	0.043471
43.47 	0.040041 	3921 	0.039593
43.51 	0.032241 	3877 	0.032090
43.55 	0.041161 	2964 	0.040172
43.59 	0.044101 	1746 	0.042759
43.63 	0.030969 	1001 	0.030969
43.67 	0.019920 	502 	0.019920
43.71 	0.037657 	239 	0.035206
43.75 	0.000000 	16 	0.000000