File: Example_Data/25SC_s1_0030.000.dat
#F C:\frames\spec\25SC_s1_0030.000
#C title =s:30 frm:0 25SC_s1
#C wavelength =0.15406

#S 1  fr_average C:\frames\spec\25SC_s1_0030.000 C:\win32app\speccom\mask.axs chi 0 180 0 360 0.02
#C 2 theta =0.000000 to 180 deg
#C   q   =0.000000 to 81.568 nm^-1
#C  chi  =0.000000 to 360 deg
#C collumns:
#C  1 position (2theta or chi in degrees)
#C  2 average intensity (sum of all counts in the region divided with number of pixels)
#C  3 Number of pixels in region)
#C  4 error (sum of sqrt(intensity) for all pixels divided by number)
#N 4
#L TTh  Int  N_pix  Err
32.99 	0.081967 	61 	0.072364
33.03 	0.055356 	1391 	0.054514
33.07 	0.057073 	2050 	0.056216
33.11 	0.063978 	2579 	0.062843
33.15 	0.067022 	2999 	0.065655
33.19 	0.058348 	3342 	0.057647
33.23 	0.055351 	3523 	0.054852
33.27 	0.052066 	3630 	0.051259
33.31 	0.053552 	3660 	0.053072
33.35 	0.058202 	3694 	0.057727
33.39 	0.065701 	3729 	0.064287
33.43 	0.063813 	3761 	0.062878
33.47 	0.057662 	3798 	0.057353
33.51 	0.058716 	3815 	0.057948
33.55 	0.052303 	3843 	0.051236
33.59 	0.063918 	3880 	0.062559
33.63 	0.063537 	3919 	0.062341
33.67 	0.057410 	3954 	0.056818
33.71 	0.058616 	3975 	0.057732
33.75 	0.067517 	3999 	0.065027
33.79 	0.062608 	4041 	0.062028
33.83 	0.059753 	4050 	0.058451
33.87 	0.062758 	4111 	0.062046
33.91 	0.065076 	4149 	0.064088
33.95 	0.060751 	4181 	0.059187
33.99 	0.055238 	4200 	0.054401
34.03 	0.062205 	4244 	0.061515
34.07 	0.061153 	4268 	0.060467
34.11 	0.059740 	4302 	0.058923
34.15 	0.058647 	4331 	0.057430
34.19 	0.061210 	4362 	0.060383
34.23 	0.061234 	4393 	0.060034
34.27 	0.060154 	4422 	0.059072
34.31 	0.056079 	4458 	0.055685
34.35 	0.062444 	4484 	0.061530
34.39 	0.061084 	4502 	0.060173
34.43 	0.057722 	4539 	0.056431
34.47 	0.050958 	4592 	0.050703
34.51 	0.057968 	4606 	0.057078
34.55 	0.052983 	4643 	0.052205
34.59 	0.050695 	4675 	0.049943
34.63 	0.061783 	4710 	0.060291
34.67 	0.057794 	4741 	0.056661
34.71 	0.057071 	4766 	0.055842
34.75 	0.052413 	4808 	0.052047
34.79 	0.058250 	4824 	0.057279
34.83 	0.056150 	4862 	0.055547
34.87 	0.057724 	4868 	0.056521
34.91 	0.062065 	4882 	0.060625
34.95 	0.052352 	4890 	0.051254
34.99 	0.049622 	4897 	0.049383
35.03 	0.053611 	4943 	0.053019
35.07 	0.056478 	4940 	0.055529
35.11 	0.053164 	4947 	0.052098
35.15 	0.055297 	4937 	0.054466
35.19 	0.053217 	4942 	0.052506
35.23 	0.058241 	4945 	0.057293
35.27 	0.056791 	4948 	0.055962
35.31 	0.053923 	4933 	0.053091
35.35 	0.060704 	4942 	0.058907
35.39 	0.055814 	4945 	0.055340
35.43 	0.054936 	4933 	0.054105
35.47 	0.053944 	4931 	0.052994
35.51 	0.061104 	4926 	0.059915
35.55 	0.052376 	4945 	0.051784
35.59 	0.067341 	4945 	0.065801
35.63 	0.059680 	4943 	0.058732
35.67 	0.053824 	4942 	0.053113
35.71 	0.064817 	4937 	0.063867
35.75 	0.059826 	4931 	0.058875
35.79 	0.052514 	4932 	0.051069
35.83 	0.054387 	4946 	0.053539
35.87 	0.055454 	4923 	0.054859
35.91 	0.049320 	4927 	0.048963
35.95 	0.055725 	4917 	0.055487
35.99 	0.053250 	4939 	0.052657
36.03 	0.059478 	4943 	0.058648
36.07 	0.054667 	4939 	0.053837
36.11 	0.053155 	4929 	0.051966
36.15 	0.053655 	4939 	0.051994
36.19 	0.054858 	4940 	0.054009
36.23 	0.058156 	4935 	0.056949
36.27 	0.056244 	4925 	0.055411
36.31 	0.054383 	4928 	0.053194
36.35 	0.056604 	4929 	0.055653
36.39 	0.057102 	4921 	0.055436
36.43 	0.060065 	4928 	0.059233
36.47 	0.060981 	4936 	0.059912
36.51 	0.057774 	4933 	0.056943
36.55 	0.062513 	4927 	0.061661
36.59 	0.062968 	4939 	0.061881
36.63 	0.056986 	4931 	0.056630
36.67 	0.058215 	4930 	0.057146
36.71 	0.057915 	4921 	0.057082
36.75 	0.058455 	4944 	0.057744
36.79 	0.052428 	4921 	0.051238
36.83 	0.060834 	4915 	0.059523
36.87 	0.063107 	4944 	0.062277
36.91 	0.054645 	4941 	0.053933
36.95 	0.060409 	4933 	0.059222
36.99 	0.053698 	4935 	0.052986
37.03 	0.060520 	4924 	0.060044
37.07 	0.056738 	4935 	0.055175
37.11 	0.055724 	4935 	0.055131
37.15 	0.054594 	4909 	0.053639
37.19 	0.051777 	4925 	0.051301
37.23 	0.055307 	4918 	0.054116
37.27 	0.060891 	4894 	0.060173
37.31 	0.059980 	4935 	0.059268
37.35 	0.065411 	4938 	0.063869
37.39 	0.050700 	4931 	0.049987
37.43 	0.059611 	4932 	0.058898
37.47 	0.053358 	4929 	0.052763
37.51 	0.057166 	4933 	0.056454
37.55 	0.061055 	4930 	0.059748
37.59 	0.053103 	4915 	0.052745
37.63 	0.056922 	4919 	0.055731
37.67 	0.054853 	4904 	0.054256
37.71 	0.054981 	4929 	0.053911
37.75 	0.054453 	4940 	0.053386
37.79 	0.052941 	4930 	0.051872
37.83 	0.055894 	4920 	0.055061
37.87 	0.054667 	4939 	0.054074
37.91 	0.054564 	4930 	0.053732
37.95 	0.053851 	4921 	0.053137
37.99 	0.053746 	4912 	0.053269
38.03 	0.058260 	4909 	0.057186
38.07 	0.060094 	4909 	0.059139
38.11 	0.056535 	4935 	0.055941
38.15 	0.055917 	4918 	0.054964
38.19 	0.057201 	4930 	0.056607
38.23 	0.059741 	4938 	0.058673
38.27 	0.063692 	4930 	0.062860
38.31 	0.063730 	4927 	0.062641
38.35 	0.062500 	4928 	0.061787
38.39 	0.075983 	4909 	0.073954
38.43 	0.086859 	4916 	0.084714
38.47 	0.068677 	4907 	0.067006
38.51 	0.077656 	4932 	0.075875
38.55 	0.077188 	4936 	0.074814
38.59 	0.075751 	4924 	0.074205
38.63 	0.071690 	4924 	0.070143
38.67 	0.077983 	4937 	0.076559
38.71 	0.073517 	4924 	0.071733
38.75 	0.072661 	4927 	0.070877
38.79 	0.071139 	4934 	0.069121
38.83 	0.051027 	4919 	0.050074
38.87 	0.050906 	4911 	0.049952
38.91 	0.059963 	4903 	0.059007
38.95 	0.051444 	4918 	0.050491
38.99 	0.049018 	4937 	0.048068
39.03 	0.050669 	4934 	0.050194
39.07 	0.049959 	4924 	0.048988
39.11 	0.050294 	4931 	0.049462
39.15 	0.046999 	4915 	0.046641
39.19 	0.049827 	4917 	0.049112
39.23 	0.043655 	4925 	0.043060
39.27 	0.048065 	4910 	0.047707
39.31 	0.052621 	4884 	0.051541
39.35 	0.055319 	4935 	0.054370
39.39 	0.044634 	4929 	0.043921
39.43 	0.043584 	4933 	0.043228
39.47 	0.045704 	4923 	0.044990
39.51 	0.045898 	4924 	0.045184
39.55 	0.047977 	4919 	0.047362
39.59 	0.049674 	4912 	0.048959
39.63 	0.046729 	4922 	0.045896
39.67 	0.043151 	4913 	0.042793
39.71 	0.047395 	4895 	0.047036
39.75 	0.048498 	4928 	0.047904
39.79 	0.037759 	4926 	0.037402
39.83 	0.042156 	4934 	0.041325
39.87 	0.043046 	4925 	0.042689
39.91 	0.052011 	4922 	0.050821
39.95 	0.050458 	4915 	0.049981
39.99 	0.045620 	4932 	0.045383
40.03 	0.038352 	4928 	0.038233
40.07 	0.045094 	4923 	0.044381
40.11 	0.044752 	4916 	0.044017
40.15 	0.040098 	4913 	0.039859
40.19 	0.040982 	4929 	0.040507
40.23 	0.039538 	4932 	0.039063
40.27 	0.042739 	4937 	0.042264
40.31 	0.038672 	4939 	0.038059
40.35 	0.046148 	4919 	0.045314
40.39 	0.043399 	4931 	0.042924
40.43 	0.040024 	4922 	0.039191
40.47 	0.038837 	4918 	0.038480
40.51 	0.040431 	4922 	0.039578
40.55 	0.038916 	4908 	0.038319
40.59 	0.038890 	4937 	0.038534
40.63 	0.038945 	4930 	0.038708
40.67 	0.044201 	4932 	0.043588
40.71 	0.046026 	4932 	0.045195
40.75 	0.042588 	4931 	0.041994
40.79 	0.043054 	4924 	0.042460
40.83 	0.040584 	4928 	0.040347
40.87 	0.039570 	4928 	0.039213
40.91 	0.037579 	4923 	0.037222
40.95 	0.039080 	4913 	0.038007
40.99 	0.038587 	4924 	0.038111
41.03 	0.044444 	4905 	0.044206
41.07 	0.047667 	4930 	0.046598
41.11 	0.042148 	4935 	0.041554
41.15 	0.039870 	4941 	0.039515
41.19 	0.038540 	4930 	0.037827
41.23 	0.043936 	4939 	0.043106
41.27 	0.040965 	4931 	0.040490
41.31 	0.039732 	4933 	0.039376
41.35 	0.037262 	4938 	0.037025
41.39 	0.042976 	4933 	0.042382
41.43 	0.046663 	4929 	0.046068
41.47 	0.038774 	4926 	0.038417
41.51 	0.043320 	4940 	0.043201
41.55 	0.041743 	4935 	0.041387
41.59 	0.046625 	4933 	0.045912
41.63 	0.039490 	4938 	0.039015
41.67 	0.041296 	4940 	0.041296
41.71 	0.044386 	4934 	0.043436
41.75 	0.040982 	4929 	0.040625
41.79 	0.036812 	4944 	0.036575
41.83 	0.040179 	4928 	0.039584
41.87 	0.040932 	4935 	0.040082
41.91 	0.041937 	4936 	0.041225
41.95 	0.036909 	4931 	0.036553
41.99 	0.037309 	4905 	0.036831
42.03 	0.040899 	4939 	0.040069
42.07 	0.036459 	4937 	0.035866
42.11 	0.039029 	4945 	0.038555
42.15 	0.039692 	4938 	0.038743
42.19 	0.038712 	4908 	0.038096
42.23 	0.041292 	4892 	0.041172
42.27 	0.037751 	4874 	0.037511
42.31 	0.035633 	4855 	0.035392
42.35 	0.033898 	4838 	0.033656
42.39 	0.043297 	4804 	0.043053
42.43 	0.039023 	4792 	0.038657
42.47 	0.035677 	4765 	0.035431
42.51 	0.040481 	4743 	0.040234
42.55 	0.037596 	4708 	0.037098
42.59 	0.039120 	4729 	0.038996
42.63 	0.031854 	4709 	0.031605
42.67 	0.035226 	4684 	0.034851
42.71 	0.041604 	4663 	0.041102
42.75 	0.039853 	4617 	0.039091
42.79 	0.038411 	4582 	0.038028
42.83 	0.031526 	4536 	0.031138
42.87 	0.036008 	4499 	0.035878
42.91 	0.033662 	4456 	0.033246
42.95 	0.038270 	4416 	0.037872
42.99 	0.040365 	4385 	0.039831
43.03 	0.038772 	4333 	0.038367
43.07 	0.039572 	4296 	0.038890
43.11 	0.043008 	4255 	0.042182
43.15 	0.035901 	4206 	0.035205
43.19 	0.040296 	4194 	0.039574
43.23 	0.039480 	4154 	0.039198
43.27 	0.040195 	4105 	0.040052
43.31 	0.037509 	4079 	0.037078
43.35 	0.037946 	4032 	0.037656
43.39 	0.037981 	4002 	0.037396
43.43 	0.034848 	3960 	0.034701
43.47 	0.034685 	3921 	0.033938
43.51 	0.034047 	3877 	0.033291
43.55 	0.041498 	2964 	0.040510
43.59 	0.036655 	1746 	0.036655
43.63 	0.034965 	1001 	0.033795
43.67 	0.019920 	502 	0.019920
43.71 	0.046025 	239 	0.046025
43.75 	0.125000 	16 	0.125000