File: Example_Data/25SC_s1_0017.000.dat
#F C:\frames\spec\25SC_s1_0017.000
#C title =s:17 frm:0 25SC_s1
#C wavelength =0.15406

#S 1  fr_average C:\frames\spec\25SC_s1_0017.000 C:\win32app\speccom\mask.axs chi 0 180 0 360 0.02
#C 2 theta =0.000000 to 180 deg
#C   q   =0.000000 to 81.568 nm^-1
#C  chi  =0.000000 to 360 deg
#C collumns:
#C  1 position (2theta or chi in degrees)
#C  2 average intensity (sum of all counts in the region divided with number of pixels)
#C  3 Number of pixels in region)
#C  4 error (sum of sqrt(intensity) for all pixels divided by number)
#N 4
#L TTh  Int  N_pix  Err
32.99 	0.098361 	61 	0.098361
33.03 	0.058950 	1391 	0.056845
33.07 	0.065366 	2050 	0.063651
33.11 	0.052734 	2579 	0.052052
33.15 	0.064355 	2999 	0.063769
33.19 	0.061939 	3342 	0.060858
33.23 	0.063014 	3523 	0.061684
33.27 	0.061983 	3630 	0.061015
33.31 	0.057923 	3660 	0.056323
33.35 	0.061451 	3694 	0.059839
33.39 	0.065433 	3729 	0.064176
33.43 	0.062483 	3761 	0.061860
33.47 	0.059505 	3798 	0.057808
33.51 	0.058453 	3815 	0.057532
33.55 	0.064793 	3843 	0.063269
33.59 	0.061340 	3880 	0.060434
33.63 	0.060219 	3919 	0.059173
33.67 	0.059433 	3954 	0.058100
33.71 	0.057610 	3975 	0.056431
33.75 	0.059515 	3999 	0.058343
33.79 	0.056422 	4041 	0.054392
33.83 	0.061235 	4050 	0.060801
33.87 	0.065434 	4111 	0.064722
33.91 	0.056399 	4149 	0.055834
33.95 	0.062664 	4181 	0.061403
33.99 	0.056905 	4200 	0.056068
34.03 	0.064797 	4244 	0.064245
34.07 	0.059278 	4268 	0.058981
34.11 	0.060437 	4302 	0.059291
34.15 	0.058878 	4331 	0.057796
34.19 	0.058689 	4362 	0.057749
34.23 	0.061461 	4393 	0.059861
34.27 	0.059701 	4422 	0.058509
34.31 	0.054733 	4458 	0.054339
34.35 	0.051963 	4484 	0.051048
34.39 	0.059085 	4502 	0.058695
34.43 	0.053095 	4539 	0.052450
34.47 	0.058798 	4592 	0.057119
34.51 	0.057968 	4606 	0.056950
34.55 	0.059229 	4643 	0.058093
34.59 	0.056257 	4675 	0.055630
34.63 	0.052229 	4710 	0.050716
34.67 	0.055474 	4741 	0.054094
34.71 	0.063366 	4766 	0.062382
34.75 	0.056364 	4808 	0.055633
34.79 	0.060116 	4824 	0.058659
34.83 	0.058001 	4862 	0.057278
34.87 	0.064708 	4868 	0.064107
34.91 	0.054281 	4882 	0.053561
34.95 	0.059714 	4890 	0.058755
34.99 	0.056565 	4897 	0.055967
35.03 	0.058871 	4943 	0.057430
35.07 	0.064980 	4940 	0.063893
35.11 	0.060239 	4947 	0.059528
35.15 	0.051651 	4937 	0.051295
35.19 	0.057467 	4942 	0.056163
35.23 	0.055410 	4945 	0.054343
35.27 	0.062045 	4948 	0.060625
35.31 	0.061829 	4933 	0.060997
35.35 	0.056455 	4942 	0.055388
35.39 	0.055814 	4945 	0.055340
35.43 	0.055950 	4933 	0.054129
35.47 	0.054756 	4931 	0.053805
35.51 	0.060698 	4926 	0.060104
35.55 	0.052983 	4945 	0.052134
35.59 	0.058443 	4945 	0.057851
35.63 	0.061703 	4943 	0.061111
35.67 	0.056657 	4942 	0.055590
35.71 	0.056512 	4937 	0.055800
35.75 	0.055161 	4931 	0.053973
35.79 	0.057380 	4932 	0.056668
35.83 	0.061464 	4946 	0.060398
35.87 	0.063376 	4923 	0.061810
35.91 	0.060077 	4927 	0.059007
35.95 	0.053895 	4917 	0.052465
35.99 	0.061753 	4939 	0.060686
36.03 	0.056646 	4943 	0.055323
36.07 	0.066815 	4939 	0.066341
36.11 	0.054981 	4929 	0.053892
36.15 	0.055679 	4939 	0.054849
36.19 	0.061134 	4940 	0.060304
36.23 	0.059574 	4935 	0.058862
36.27 	0.052995 	4925 	0.051568
36.31 	0.063515 	4928 	0.063039
36.35 	0.056401 	4929 	0.055569
36.39 	0.065840 	4921 	0.064769
36.43 	0.059659 	4928 	0.058213
36.47 	0.056726 	4936 	0.055382
36.51 	0.057369 	4933 	0.056656
36.55 	0.055003 	4927 	0.053933
36.59 	0.056287 	4939 	0.055338
36.63 	0.061854 	4931 	0.060666
36.67 	0.057201 	4930 	0.055993
36.71 	0.065840 	4921 	0.065007
36.75 	0.063107 	4944 	0.061922
36.79 	0.061776 	4921 	0.060943
36.83 	0.050865 	4915 	0.049435
36.87 	0.061691 	4944 	0.060250
36.91 	0.059907 	4941 	0.058129
36.95 	0.052909 	4933 	0.052315
36.99 	0.060385 	4935 	0.060029
37.03 	0.060926 	4924 	0.060093
37.07 	0.060790 	4935 	0.060315
37.11 	0.059169 	4935 	0.058457
37.15 	0.068853 	4909 	0.067660
37.19 	0.061523 	4925 	0.060195
37.23 	0.056730 	4918 	0.055371
37.27 	0.054352 	4894 	0.053395
37.31 	0.060790 	4935 	0.060315
37.35 	0.059943 	4938 	0.059350
37.39 	0.059826 	4931 	0.059113
37.43 	0.057178 	4932 	0.056584
37.47 	0.058430 	4929 	0.057479
37.51 	0.058788 	4933 	0.058075
37.55 	0.057809 	4930 	0.056839
37.59 	0.051068 	4915 	0.050333
37.63 	0.054076 	4919 	0.052647
37.67 	0.058931 	4904 	0.058334
37.71 	0.054372 	4929 	0.053540
37.75 	0.060324 	4940 	0.059612
37.79 	0.059838 	4930 	0.058511
37.83 	0.054268 	4920 	0.053792
37.87 	0.057704 	4939 	0.056637
37.91 	0.051521 	4930 	0.051046
37.95 	0.056899 	4921 	0.055709
37.99 	0.059650 	4912 	0.059173
38.03 	0.050723 	4909 	0.050485
38.07 	0.060705 	4909 	0.059273
38.11 	0.060385 	4935 	0.059317
38.15 	0.056730 	4918 	0.056373
38.19 	0.055984 	4930 	0.055390
38.23 	0.058931 	4938 	0.057389
38.27 	0.050507 	4930 	0.049913
38.31 	0.053582 	4927 	0.052750
38.35 	0.057630 	4928 	0.056798
38.39 	0.061723 	4909 	0.060849
38.43 	0.060415 	4916 	0.059223
38.47 	0.059099 	4907 	0.058383
38.51 	0.074412 	4932 	0.072868
38.55 	0.075365 	4936 	0.073941
38.59 	0.073924 	4924 	0.072258
38.63 	0.076564 	4924 	0.074403
38.67 	0.077375 	4937 	0.075576
38.71 	0.075142 	4924 	0.073239
38.75 	0.081997 	4927 	0.080214
38.79 	0.076611 	4934 	0.074949
38.83 	0.073186 	4919 	0.071380
38.87 	0.075748 	4911 	0.074078
38.91 	0.068326 	4903 	0.067011
38.95 	0.059577 	4918 	0.057652
38.99 	0.060158 	4937 	0.058734
39.03 	0.059587 	4934 	0.058637
39.07 	0.054224 	4924 	0.053867
39.11 	0.058406 	4931 	0.057555
39.15 	0.048830 	4915 	0.047757
39.19 	0.048200 	4917 	0.047843
39.23 	0.049746 	4925 	0.048795
39.27 	0.049898 	4910 	0.048824
39.31 	0.045045 	4884 	0.044086
39.35 	0.044377 	4935 	0.043526
39.39 	0.045242 	4929 	0.044411
39.43 	0.048044 	4933 	0.047213
39.47 	0.046923 	4923 	0.046447
39.51 	0.052600 	4924 	0.051767
39.55 	0.045538 	4919 	0.045300
39.59 	0.050692 	4912 	0.050334
39.63 	0.051605 	4922 	0.050891
39.67 	0.049664 	4913 	0.048949
39.71 	0.056384 	4895 	0.055068
39.75 	0.044643 	4928 	0.044049
39.79 	0.049533 	4926 	0.049176
39.83 	0.047223 	4934 	0.046511
39.87 	0.038985 	4925 	0.038509
39.91 	0.045510 	4922 	0.044558
39.95 	0.044354 	4915 	0.043758
39.99 	0.043593 	4932 	0.042999
40.03 	0.051339 	4928 	0.050864
40.07 	0.048954 	4923 	0.047883
40.11 	0.043735 	4916 	0.043496
40.15 	0.042744 	4913 	0.042386
40.19 	0.043214 	4929 	0.042501
40.23 	0.039740 	4932 	0.039384
40.27 	0.043144 	4937 	0.042669
40.31 	0.039887 	4939 	0.038938
40.35 	0.040862 	4919 	0.040505
40.39 	0.044210 	4931 	0.043022
40.43 	0.043478 	4922 	0.042883
40.47 	0.043107 	4918 	0.042750
40.51 	0.047338 	4922 	0.046981
40.55 	0.045232 	4908 	0.044874
40.59 	0.046587 	4937 	0.046112
40.63 	0.043205 	4930 	0.042373
40.67 	0.040552 	4932 	0.040314
40.71 	0.048054 	4932 	0.047222
40.75 	0.042993 	4931 	0.042399
40.79 	0.044679 	4924 	0.044322
40.83 	0.044034 	4928 	0.043321
40.87 	0.040584 	4928 	0.039990
40.91 	0.044891 	4923 	0.044296
40.95 	0.047018 	4913 	0.046422
40.99 	0.039805 	4924 	0.039448
41.03 	0.049134 	4905 	0.048298
41.07 	0.046653 	4930 	0.045584
41.11 	0.036879 	4935 	0.036405
41.15 	0.046752 	4941 	0.046515
41.19 	0.043611 	4930 	0.042403
41.23 	0.040696 	4939 	0.040222
41.27 	0.038532 	4931 	0.038057
41.31 	0.040341 	4933 	0.039866
41.35 	0.039692 	4938 	0.039099
41.39 	0.041962 	4933 	0.041250
41.43 	0.039968 	4929 	0.039492
41.47 	0.044052 	4926 	0.043576
41.51 	0.046964 	4940 	0.046608
41.55 	0.039919 	4935 	0.039444
41.59 	0.045408 	4933 	0.044340
41.63 	0.038680 	4938 	0.038205
41.67 	0.042308 	4940 	0.041478
41.71 	0.039319 	4934 	0.038844
41.75 	0.042605 	4929 	0.042011
41.79 	0.042678 	4944 	0.042323
41.83 	0.049107 	4928 	0.048156
41.87 	0.033840 	4935 	0.033365
41.91 	0.039506 	4936 	0.039031
41.95 	0.042791 	4931 	0.042315
41.99 	0.043629 	4905 	0.042893
42.03 	0.042721 	4939 	0.042010
42.07 	0.042131 	4937 	0.041637
42.11 	0.037614 	4945 	0.037258
42.15 	0.038477 	4938 	0.037864
42.19 	0.041769 	4908 	0.041291
42.23 	0.035977 	4892 	0.035857
42.27 	0.043086 	4874 	0.042605
42.31 	0.037075 	4855 	0.036713
42.35 	0.034518 	4838 	0.033913
42.39 	0.042048 	4804 	0.041561
42.43 	0.041945 	4792 	0.041069
42.47 	0.037985 	4765 	0.037739
42.51 	0.040902 	4743 	0.040161
42.55 	0.041631 	4708 	0.041382
42.59 	0.043138 	4729 	0.042374
42.63 	0.041410 	4709 	0.040664
42.67 	0.041418 	4684 	0.040917
42.71 	0.037101 	4663 	0.036724
42.75 	0.035954 	4617 	0.035193
42.79 	0.043867 	4582 	0.043484
42.83 	0.035714 	4536 	0.035327
42.87 	0.038231 	4499 	0.037710
42.91 	0.041517 	4456 	0.040991
42.95 	0.041440 	4416 	0.041042
42.99 	0.041277 	4385 	0.040743
43.03 	0.039234 	4333 	0.038536
43.07 	0.037011 	4296 	0.036875
43.11 	0.033137 	4255 	0.033000
43.15 	0.033048 	4206 	0.032909
43.19 	0.044826 	4194 	0.044407
43.23 	0.037795 	4154 	0.036949
43.27 	0.041657 	4105 	0.040658
43.31 	0.040696 	4079 	0.040265
43.35 	0.039187 	4032 	0.038896
43.39 	0.039730 	4002 	0.039584
43.43 	0.032323 	3960 	0.031732
43.47 	0.034175 	3921 	0.033727
43.51 	0.037400 	3877 	0.037098
43.55 	0.037112 	2964 	0.037112
43.59 	0.048683 	1746 	0.047676
43.63 	0.027972 	1001 	0.027972
43.67 	0.029880 	502 	0.029880
43.71 	0.046025 	239 	0.046025
43.75 	0.125000 	16 	0.125000