File: Example_Data/25SC_s1_0011.001.dat
#F C:\frames\spec\25SC_s1_0011.001
#C title =s:11 frm:1 25SC_s1
#C wavelength =0.15406

#S 1  fr_average C:\frames\spec\25SC_s1_0011.001 C:\win32app\speccom\mask.axs chi 0 180 0 360 0.02
#C 2 theta =0.000000 to 180 deg
#C   q   =0.000000 to 81.568 nm^-1
#C  chi  =0.000000 to 360 deg
#C collumns:
#C  1 position (2theta or chi in degrees)
#C  2 average intensity (sum of all counts in the region divided with number of pixels)
#C  3 Number of pixels in region)
#C  4 error (sum of sqrt(intensity) for all pixels divided by number)
#N 4
#L TTh  Int  N_pix  Err
32.99 	0.049180 	61 	0.049180
33.03 	0.058231 	1391 	0.056126
33.07 	0.067317 	2050 	0.066460
33.11 	0.064754 	2579 	0.063164
33.15 	0.069356 	2999 	0.068184
33.19 	0.061939 	3342 	0.060186
33.23 	0.058757 	3523 	0.057094
33.27 	0.061157 	3630 	0.060350
33.31 	0.062568 	3660 	0.061448
33.35 	0.057932 	3694 	0.057615
33.39 	0.062483 	3729 	0.061541
33.43 	0.053709 	3761 	0.052619
33.47 	0.056872 	3798 	0.055792
33.51 	0.060813 	3815 	0.059431
33.55 	0.053604 	3843 	0.052994
33.59 	0.055928 	3880 	0.055022
33.63 	0.058178 	3919 	0.056833
33.67 	0.067274 	3954 	0.066088
33.71 	0.058868 	3975 	0.058278
33.75 	0.059265 	3999 	0.058972
33.79 	0.056917 	4041 	0.055878
33.83 	0.060494 	4050 	0.060060
33.87 	0.056191 	4111 	0.055906
33.91 	0.062907 	4149 	0.061472
33.95 	0.060512 	4181 	0.060092
33.99 	0.051190 	4200 	0.049935
34.03 	0.064797 	4244 	0.063256
34.07 	0.060216 	4268 	0.059255
34.11 	0.059740 	4302 	0.058650
34.15 	0.063496 	4331 	0.062278
34.19 	0.060064 	4362 	0.059393
34.23 	0.058275 	4393 	0.057474
34.27 	0.055857 	4422 	0.055195
34.31 	0.061911 	4458 	0.061254
34.35 	0.053524 	4484 	0.052087
34.39 	0.054642 	4502 	0.053710
34.43 	0.055299 	4539 	0.054266
34.47 	0.060540 	4592 	0.058329
34.51 	0.059488 	4606 	0.058470
34.55 	0.058367 	4643 	0.057989
34.59 	0.056898 	4675 	0.056397
34.63 	0.060722 	4710 	0.059354
34.67 	0.058848 	4741 	0.057345
34.71 	0.054133 	4766 	0.053273
34.75 	0.060524 	4808 	0.059549
34.79 	0.058665 	4824 	0.057694
34.83 	0.060880 	4862 	0.060278
34.87 	0.052383 	4868 	0.050819
34.91 	0.059607 	4882 	0.058407
34.95 	0.060941 	4890 	0.059743
34.99 	0.061875 	4897 	0.060300
35.03 	0.057050 	4943 	0.055865
35.07 	0.054251 	4940 	0.053895
35.11 	0.054376 	4947 	0.053429
35.15 	0.056715 	4937 	0.056003
35.19 	0.061109 	4942 	0.059924
35.23 	0.057634 	4945 	0.056311
35.27 	0.056993 	4948 	0.055927
35.31 	0.061626 	4933 	0.061270
35.35 	0.058681 	4942 	0.057713
35.39 	0.062487 	4945 	0.061421
35.43 	0.055342 	4933 	0.054510
35.47 	0.050902 	4931 	0.050427
35.51 	0.063946 	4926 	0.063114
35.55 	0.055814 	4945 	0.054254
35.59 	0.060870 	4945 	0.060277
35.63 	0.055634 	4943 	0.054923
35.67 	0.056657 	4942 	0.055709
35.71 	0.055904 	4937 	0.054718
35.75 	0.059826 	4931 	0.058380
35.79 	0.055556 	4932 	0.055199
35.83 	0.056814 	4946 	0.056340
35.87 	0.062970 	4923 	0.061661
35.91 	0.054394 	4927 	0.053919
35.95 	0.058776 	4917 	0.057703
35.99 	0.067220 	4939 	0.065896
36.03 	0.066356 	4943 	0.065408
36.07 	0.061146 	4939 	0.059940
36.11 	0.059647 	4929 	0.058577
36.15 	0.064588 	4939 	0.063402
36.19 	0.061943 	4940 	0.061588
36.23 	0.055927 	4935 	0.055215
36.27 	0.059492 	4925 	0.058660
36.31 	0.065544 	4928 	0.064117
36.35 	0.068777 	4929 	0.067232
36.39 	0.055070 	4921 	0.054356
36.43 	0.057224 	4928 	0.056273
36.47 	0.060778 	4936 	0.060185
36.51 	0.057977 	4933 	0.056671
36.55 	0.058250 	4927 	0.057180
36.59 	0.060944 	4939 	0.059995
36.63 	0.059014 	4931 	0.057708
36.67 	0.057809 	4930 	0.056859
36.71 	0.058931 	4921 	0.058078
36.75 	0.057848 	4944 	0.056999
36.79 	0.061776 	4921 	0.059752
36.83 	0.056562 	4915 	0.055251
36.87 	0.056634 	4944 	0.055805
36.91 	0.065371 	4941 	0.064522
36.95 	0.061626 	4933 	0.060320
36.99 	0.062411 	4935 	0.061343
37.03 	0.059708 	4924 	0.058161
37.07 	0.062209 	4935 	0.061378
37.11 	0.065248 	4935 	0.063468
37.15 	0.062742 	4909 	0.061191
37.19 	0.061929 	4925 	0.060858
37.23 	0.061814 	4918 	0.060623
37.27 	0.053126 	4894 	0.052049
37.31 	0.064438 	4935 	0.063488
37.35 	0.062981 	4938 	0.061913
37.39 	0.056784 	4931 	0.055714
37.43 	0.058800 	4932 	0.058443
37.47 	0.067559 	4929 	0.066014
37.51 	0.057571 	4933 	0.056978
37.55 	0.058215 	4930 	0.057264
37.59 	0.053917 	4915 	0.053440
37.63 	0.057735 	4919 	0.056783
37.67 	0.056688 	4904 	0.055733
37.71 	0.062082 	4929 	0.061250
37.75 	0.052429 	4940 	0.051599
37.79 	0.050710 	4930 	0.049641
37.83 	0.058943 	4920 	0.057852
37.87 	0.056084 	4939 	0.055491
37.91 	0.056795 	4930 	0.056082
37.95 	0.057915 	4921 	0.056725
37.99 	0.054764 	4912 	0.054287
38.03 	0.056020 	4909 	0.055423
38.07 	0.053168 	4909 	0.052571
38.11 	0.052280 	4935 	0.051686
38.15 	0.055714 	4918 	0.054999
38.19 	0.052738 	4930 	0.051669
38.23 	0.055286 	4938 	0.054930
38.27 	0.053753 	4930 	0.053277
38.31 	0.056221 	4927 	0.055607
38.35 	0.059659 	4928 	0.059065
38.39 	0.057853 	4909 	0.057137
38.43 	0.060618 	4916 	0.059665
38.47 	0.058284 	4907 	0.057568
38.51 	0.065693 	4932 	0.064862
38.55 	0.069692 	4936 	0.068743
38.59 	0.072299 	4924 	0.070257
38.63 	0.068846 	4924 	0.067895
38.67 	0.077983 	4937 	0.076677
38.71 	0.075751 	4924 	0.073967
38.75 	0.080779 	4927 	0.078996
38.79 	0.066275 	4934 	0.064731
38.83 	0.070136 	4919 	0.069184
38.87 	0.066992 	4911 	0.065064
38.91 	0.062207 	4903 	0.060375
38.95 	0.062424 	4918 	0.061114
38.99 	0.057727 	4937 	0.056897
39.03 	0.054925 	4934 	0.053956
39.07 	0.051787 	4924 	0.051192
39.11 	0.052322 	4931 	0.051471
39.15 	0.046796 	4915 	0.045723
39.19 	0.045556 	4917 	0.045318
39.23 	0.045888 	4925 	0.045155
39.27 	0.047862 	4910 	0.047146
39.31 	0.055897 	4884 	0.055177
39.35 	0.047822 	4935 	0.047109
39.39 	0.044431 	4929 	0.043698
39.43 	0.047841 	4933 	0.047247
39.47 	0.051391 	4923 	0.050440
39.51 	0.046913 	4924 	0.046794
39.55 	0.048587 	4919 	0.047634
39.59 	0.048046 	4912 	0.046853
39.63 	0.047338 	4922 	0.046505
39.67 	0.045593 	4913 	0.045097
39.71 	0.046578 	4895 	0.046339
39.75 	0.042005 	4928 	0.041886
39.79 	0.049533 	4926 	0.048701
39.83 	0.046818 	4934 	0.046581
39.87 	0.046091 	4925 	0.045853
39.91 	0.045713 	4922 	0.044999
39.95 	0.042930 	4915 	0.042453
39.99 	0.046431 	4932 	0.045956
40.03 	0.043019 	4928 	0.042544
40.07 	0.047329 	4923 	0.046377
40.11 	0.045769 	4916 	0.044458
40.15 	0.042947 	4913 	0.042590
40.19 	0.042808 	4929 	0.042214
40.23 	0.044404 	4932 	0.043810
40.27 	0.042536 	4937 	0.041943
40.31 	0.046366 	4939 	0.045891
40.35 	0.042488 	4919 	0.042250
40.39 	0.044413 	4931 	0.044057
40.43 	0.045104 	4922 	0.044509
40.47 	0.038634 	4918 	0.038514
40.51 	0.045307 	4922 	0.044474
40.55 	0.041157 	4908 	0.040919
40.59 	0.041928 	4937 	0.041335
40.63 	0.042394 	4930 	0.041918
40.67 	0.046634 	4932 	0.046278
40.71 	0.047445 	4932 	0.047089
40.75 	0.042588 	4931 	0.042113
40.79 	0.041430 	4924 	0.041430
40.83 	0.041802 	4928 	0.040831
40.87 	0.046469 	4928 	0.045994
40.91 	0.043673 	4923 	0.043435
40.95 	0.036841 	4913 	0.036006
40.99 	0.045085 	4924 	0.044114
41.03 	0.040367 	4905 	0.040128
41.07 	0.046450 	4930 	0.046213
41.11 	0.044174 	4935 	0.043818
41.15 	0.042299 	4941 	0.041706
41.19 	0.042596 	4930 	0.041765
41.23 	0.042519 	4939 	0.042282
41.27 	0.047252 	4931 	0.046658
41.31 	0.038516 	4933 	0.037685
41.35 	0.041920 	4938 	0.041327
41.39 	0.040138 	4933 	0.039544
41.43 	0.041591 	4929 	0.041115
41.47 	0.038977 	4926 	0.038858
41.51 	0.039069 	4940 	0.038120
41.55 	0.048024 	4935 	0.047431
41.59 	0.048652 	4933 	0.048058
41.63 	0.041515 	4938 	0.041159
41.67 	0.032996 	4940 	0.032403
41.71 	0.041751 	4934 	0.041632
41.75 	0.045242 	4929 	0.044767
41.79 	0.040858 	4944 	0.040147
41.83 	0.040584 	4928 	0.040466
41.87 	0.040932 	4935 	0.040457
41.91 	0.037277 	4936 	0.036546
41.95 	0.040763 	4931 	0.040287
41.99 	0.034251 	4905 	0.034251
42.03 	0.041304 	4939 	0.040829
42.07 	0.039903 	4937 	0.039665
42.11 	0.041052 	4945 	0.040578
42.15 	0.041110 	4938 	0.040279
42.19 	0.041361 	4908 	0.040884
42.23 	0.042110 	4892 	0.041631
42.27 	0.044112 	4874 	0.043751
42.31 	0.040165 	4855 	0.039923
42.35 	0.033692 	4838 	0.033571
42.39 	0.036220 	4804 	0.035976
42.43 	0.039858 	4792 	0.039125
42.47 	0.041553 	4765 	0.041184
42.51 	0.041535 	4743 	0.041288
42.55 	0.042481 	4708 	0.041859
42.59 	0.035525 	4729 	0.035154
42.63 	0.041835 	4709 	0.041213
42.67 	0.038002 	4684 	0.037501
42.71 	0.042462 	4663 	0.041708
42.75 	0.040286 	4617 	0.039652
42.79 	0.044740 	4582 	0.044485
42.83 	0.038801 	4536 	0.038542
42.87 	0.046010 	4499 	0.045468
42.91 	0.038151 	4456 	0.037888
42.95 	0.041667 	4416 	0.041003
42.99 	0.036716 	4385 	0.036449
43.03 	0.038541 	4333 	0.038136
43.07 	0.036546 	4296 	0.036273
43.11 	0.037603 	4255 	0.037327
43.15 	0.038992 	4206 	0.038853
43.19 	0.042680 	4194 	0.041842
43.23 	0.036351 	4154 	0.036209
43.27 	0.039464 	4105 	0.039036
43.31 	0.037019 	4079 	0.036444
43.35 	0.035962 	4032 	0.035526
43.39 	0.036232 	4002 	0.035939
43.43 	0.040404 	3960 	0.039516
43.47 	0.040041 	3921 	0.039742
43.51 	0.043332 	3877 	0.043181
43.55 	0.034750 	2964 	0.034553
43.59 	0.038946 	1746 	0.037549
43.63 	0.032967 	1001 	0.032967
43.67 	0.037849 	502 	0.037849
43.71 	0.029289 	239 	0.029289
43.75 	0.000000 	16 	0.000000