File: Example_Data/25SC_s1_0042.002.dat
#F C:\frames\spec\25SC_s1_0042.002
#C title =s:42 frm:2 25SC_s1
#C wavelength =0.15406

#S 1  fr_average C:\frames\spec\25SC_s1_0042.002 C:\win32app\speccom\mask.axs chi 0 180 0 360 0.02
#C 2 theta =0.000000 to 180 deg
#C   q   =0.000000 to 81.568 nm^-1
#C  chi  =0.000000 to 360 deg
#C collumns:
#C  1 position (2theta or chi in degrees)
#C  2 average intensity (sum of all counts in the region divided with number of pixels)
#C  3 Number of pixels in region)
#C  4 error (sum of sqrt(intensity) for all pixels divided by number)
#N 4
#L TTh  Int  N_pix  Err
32.99 	0.049180 	61 	0.049180
33.03 	0.063264 	1391 	0.062000
33.07 	0.065366 	2050 	0.064223
33.11 	0.056223 	2579 	0.055769
33.15 	0.052351 	2999 	0.051374
33.19 	0.061041 	3342 	0.059990
33.23 	0.063298 	3523 	0.061636
33.27 	0.056198 	3630 	0.055230
33.31 	0.056011 	3660 	0.054731
33.35 	0.058744 	3694 	0.057475
33.39 	0.067578 	3729 	0.066165
33.43 	0.060888 	3761 	0.059331
33.47 	0.061875 	3798 	0.060178
33.51 	0.054784 	3815 	0.054323
33.55 	0.058548 	3843 	0.058243
33.59 	0.057216 	3880 	0.056915
33.63 	0.065323 	3919 	0.064276
33.67 	0.060445 	3954 	0.059704
33.71 	0.059371 	3975 	0.058782
33.75 	0.067767 	3999 	0.065546
33.79 	0.055927 	4041 	0.054743
33.83 	0.063951 	4050 	0.062504
33.87 	0.053515 	4111 	0.052518
33.91 	0.060979 	4149 	0.060131
33.95 	0.058359 	4181 	0.057238
33.99 	0.055000 	4200 	0.054303
34.03 	0.050895 	4244 	0.050067
34.07 	0.061387 	4268 	0.059832
34.11 	0.059042 	4302 	0.058225
34.15 	0.055645 	4331 	0.054834
34.19 	0.054104 	4362 	0.053298
34.23 	0.060096 	4393 	0.058762
34.27 	0.052691 	4422 	0.051499
34.31 	0.054957 	4458 	0.053906
34.35 	0.060437 	4484 	0.059784
34.39 	0.053754 	4502 	0.053494
34.43 	0.057722 	4539 	0.056819
34.47 	0.057709 	4592 	0.057199
34.51 	0.059053 	4606 	0.058290
34.55 	0.060737 	4643 	0.059601
34.59 	0.058824 	4675 	0.057425
34.63 	0.054989 	4710 	0.054243
34.67 	0.052731 	4741 	0.051990
34.71 	0.056022 	4766 	0.055530
34.75 	0.059484 	4808 	0.059119
34.79 	0.055763 	4824 	0.055399
34.83 	0.055533 	4862 	0.054930
34.87 	0.056902 	4868 	0.055579
34.91 	0.058378 	4882 	0.057658
34.95 	0.057669 	4890 	0.056710
34.99 	0.059016 	4897 	0.057939
35.03 	0.055027 	4943 	0.054672
35.07 	0.058704 	4940 	0.057993
35.11 	0.057004 	4947 	0.055564
35.15 	0.055499 	4937 	0.054906
35.19 	0.061716 	4942 	0.060768
35.23 	0.053185 	4945 	0.052356
35.27 	0.057599 	4948 	0.056652
35.31 	0.056355 	4933 	0.055643
35.35 	0.058883 	4942 	0.057797
35.39 	0.052983 	4945 	0.052272
35.43 	0.056558 	4933 	0.056083
35.47 	0.062868 	4931 	0.062155
35.51 	0.058059 	4926 	0.057207
35.55 	0.052174 	4945 	0.051582
35.59 	0.059656 	4945 	0.058808
35.63 	0.050577 	4943 	0.049984
35.67 	0.053217 	4942 	0.052625
35.71 	0.048005 	4937 	0.047293
35.75 	0.062259 	4931 	0.061665
35.79 	0.057786 	4932 	0.057311
35.83 	0.054387 	4946 	0.054151
35.87 	0.054641 	4923 	0.053928
35.91 	0.061701 	4927 	0.060869
35.95 	0.060809 	4917 	0.059737
35.99 	0.056287 	4939 	0.055456
36.03 	0.058062 	4943 	0.057331
36.07 	0.053250 	4939 	0.052657
36.11 	0.053763 	4929 	0.052793
36.15 	0.058311 	4939 	0.057718
36.19 	0.055061 	4940 	0.054349
36.23 	0.057953 	4935 	0.057479
36.27 	0.051777 	4925 	0.050944
36.31 	0.052963 	4928 	0.052249
36.35 	0.058227 	4929 	0.057514
36.39 	0.059134 	4921 	0.058301
36.43 	0.059456 	4928 	0.058743
36.47 	0.052472 	4936 	0.052116
36.51 	0.051895 	4933 	0.051064
36.55 	0.061498 	4927 	0.060527
36.59 	0.048188 	4939 	0.047476
36.63 	0.060231 	4931 	0.059043
36.67 	0.050913 	4930 	0.050319
36.71 	0.053241 	4921 	0.052269
36.75 	0.048544 	4944 	0.047714
36.79 	0.052835 	4921 	0.052220
36.83 	0.051475 	4915 	0.050879
36.87 	0.056230 	4944 	0.055400
36.91 	0.047966 	4941 	0.047610
36.95 	0.055747 	4933 	0.055272
36.99 	0.054711 	4935 	0.053762
37.03 	0.057474 	4924 	0.056740
37.07 	0.050861 	4935 	0.050149
37.11 	0.047619 	4935 	0.047144
37.15 	0.060705 	4909 	0.059392
37.19 	0.049949 	4925 	0.049592
37.23 	0.050427 	4918 	0.049712
37.27 	0.055783 	4894 	0.054945
37.31 	0.054103 	4935 	0.053035
37.35 	0.051640 	4938 	0.050553
37.39 	0.049686 	4931 	0.048735
37.43 	0.054542 	4932 	0.053235
37.47 	0.051329 	4929 	0.050477
37.51 	0.047638 	4933 	0.047045
37.55 	0.050101 	4930 	0.049270
37.59 	0.057375 	4915 	0.055926
37.63 	0.048994 	4919 	0.048398
37.67 	0.048328 	4904 	0.047492
37.71 	0.052546 	4929 	0.052190
37.75 	0.053441 	4940 	0.052848
37.79 	0.058012 	4930 	0.056943
37.83 	0.054065 	4920 	0.053470
37.87 	0.052237 	4939 	0.051526
37.91 	0.051521 	4930 	0.050571
37.95 	0.054054 	4921 	0.052983
37.99 	0.052932 	4912 	0.051978
38.03 	0.048279 	4909 	0.047324
38.07 	0.055408 	4909 	0.054573
38.11 	0.050051 	4935 	0.049576
38.15 	0.049207 	4918 	0.048611
38.19 	0.056187 	4930 	0.055593
38.23 	0.055488 	4938 	0.054420
38.27 	0.055375 	4930 	0.054544
38.31 	0.059062 	4927 	0.057715
38.35 	0.058442 	4928 	0.056777
38.39 	0.066612 	4909 	0.065658
38.43 	0.068145 	4916 	0.067192
38.47 	0.060526 	4907 	0.059810
38.51 	0.067924 	4932 	0.066004
38.55 	0.066653 	4936 	0.065466
38.59 	0.056255 	4924 	0.055422
38.63 	0.063972 	4924 	0.062783
38.67 	0.053474 	4937 	0.052643
38.71 	0.054021 	4924 	0.053069
38.75 	0.057642 	4927 	0.056096
38.79 	0.053709 	4934 	0.052740
38.83 	0.046554 	4919 	0.045601
38.87 	0.044390 	4911 	0.044271
38.91 	0.054456 	4903 	0.054098
38.95 	0.044327 	4918 	0.043851
38.99 	0.049625 	4937 	0.049032
39.03 	0.045399 	4934 	0.044687
39.07 	0.049553 	4924 	0.049196
39.11 	0.044210 	4931 	0.043597
39.15 	0.045371 	4915 	0.044656
39.19 	0.048810 	4917 	0.048195
39.23 	0.043655 	4925 	0.042941
39.27 	0.038697 	4910 	0.037742
39.31 	0.046069 	4884 	0.045469
39.35 	0.047416 	4935 	0.046467
39.39 	0.041591 	4929 	0.040996
39.43 	0.045611 	4933 	0.044899
39.47 	0.041235 	4923 	0.040402
39.51 	0.040211 	4924 	0.039378
39.55 	0.045334 	4919 	0.044739
39.59 	0.044992 	4912 	0.044515
39.63 	0.045510 	4922 	0.044796
39.67 	0.044779 	4913 	0.044302
39.71 	0.049030 	4895 	0.047713
39.75 	0.049107 	4928 	0.048275
39.79 	0.048315 	4926 	0.047720
39.83 	0.049047 	4934 	0.048216
39.87 	0.045076 	4925 	0.044244
39.91 	0.050792 	4922 	0.050078
39.95 	0.044964 	4915 	0.044607
39.99 	0.050081 	4932 	0.049368
40.03 	0.043019 	4928 	0.042544
40.07 	0.043469 	4923 	0.042874
40.11 	0.041904 	4916 	0.041308
40.15 	0.044779 	4913 	0.044183
40.19 	0.048083 	4929 	0.047370
40.23 	0.042782 	4932 	0.042307
40.27 	0.044156 	4937 	0.043919
40.31 	0.040899 	4939 	0.040306
40.35 	0.045131 	4919 	0.044059
40.39 	0.043399 	4931 	0.042924
40.43 	0.043681 	4922 	0.043324
40.47 	0.046564 	4918 	0.045948
40.51 	0.042462 	4922 	0.042105
40.55 	0.045844 	4908 	0.045127
40.59 	0.040308 	4937 	0.039833
40.63 	0.047870 	4930 	0.047514
40.67 	0.042985 	4932 	0.042628
40.71 	0.040754 	4932 	0.040279
40.75 	0.039951 	4931 	0.039476
40.79 	0.040820 	4924 	0.040107
40.83 	0.042411 	4928 	0.042054
40.87 	0.044643 	4928 	0.043930
40.91 	0.033922 	4923 	0.033803
40.95 	0.043151 	4913 	0.042793
40.99 	0.040008 	4924 	0.039651
41.03 	0.039551 	4905 	0.038596
41.07 	0.045233 	4930 	0.044877
41.11 	0.045390 	4935 	0.044678
41.15 	0.035418 	4941 	0.035181
41.19 	0.043205 	4930 	0.043086
41.23 	0.038267 	4939 	0.038267
41.27 	0.036909 	4931 	0.036553
41.31 	0.040746 	4933 	0.040152
41.35 	0.039287 	4938 	0.038457
41.39 	0.043989 	4933 	0.043158
41.43 	0.043214 	4929 	0.042857
41.47 	0.045067 	4926 	0.044591
41.51 	0.041498 	4940 	0.041261
41.55 	0.041135 	4935 	0.040660
41.59 	0.045408 	4933 	0.044696
41.63 	0.044350 	4938 	0.043757
41.67 	0.044332 	4940 	0.043383
41.71 	0.039927 	4934 	0.039571
41.75 	0.037533 	4929 	0.037533
41.79 	0.041060 	4944 	0.040230
41.83 	0.040787 	4928 	0.040193
41.87 	0.042148 	4935 	0.041297
41.91 	0.040316 	4936 	0.039723
41.95 	0.039140 	4931 	0.039021
41.99 	0.039144 	4905 	0.038785
42.03 	0.031383 	4939 	0.030671
42.07 	0.042333 	4937 	0.041621
42.11 	0.034580 	4945 	0.034462
42.15 	0.032199 	4938 	0.032199
42.19 	0.040750 	4908 	0.040272
42.23 	0.039657 	4892 	0.039297
42.27 	0.045753 	4874 	0.045392
42.31 	0.040989 	4855 	0.040023
42.35 	0.038032 	4838 	0.037911
42.39 	0.036636 	4804 	0.036148
42.43 	0.034432 	4792 	0.034188
42.47 	0.044071 	4765 	0.043457
42.51 	0.036475 	4743 	0.036351
42.55 	0.040994 	4708 	0.040745
42.59 	0.038909 	4729 	0.038413
42.63 	0.039499 	4709 	0.039250
42.67 	0.040564 	4684 	0.040314
42.71 	0.039031 	4663 	0.038151
42.75 	0.040502 	4617 	0.039995
42.79 	0.042558 	4582 	0.041791
42.83 	0.035935 	4536 	0.035676
42.87 	0.039342 	4499 	0.038821
42.91 	0.039048 	4456 	0.038523
42.95 	0.035326 	4416 	0.034795
42.99 	0.041277 	4385 	0.040743
43.03 	0.038772 	4333 	0.038231
43.07 	0.036080 	4296 	0.035807
43.11 	0.040893 	4255 	0.040618
43.15 	0.039467 	4206 	0.039328
43.19 	0.042442 	4194 	0.042023
43.23 	0.038758 	4154 	0.038476
43.27 	0.038733 	4105 	0.038448
43.31 	0.040206 	4079 	0.039919
43.35 	0.041171 	4032 	0.040590
43.39 	0.029485 	4002 	0.029193
43.43 	0.038889 	3960 	0.038445
43.47 	0.041316 	3921 	0.041017
43.51 	0.039464 	3877 	0.038708
43.55 	0.041835 	2964 	0.041242
43.59 	0.038946 	1746 	0.038946
43.63 	0.033966 	1001 	0.033381
43.67 	0.043825 	502 	0.043825
43.71 	0.025105 	239 	0.025105
43.75 	0.000000 	16 	0.000000