File: Example_Data/25SC_s1_0037.000.dat
#F C:\frames\spec\25SC_s1_0037.000
#C title =s:37 frm:0 25SC_s1
#C wavelength =0.15406

#S 1  fr_average C:\frames\spec\25SC_s1_0037.000 C:\win32app\speccom\mask.axs chi 0 180 0 360 0.02
#C 2 theta =0.000000 to 180 deg
#C   q   =0.000000 to 81.568 nm^-1
#C  chi  =0.000000 to 360 deg
#C collumns:
#C  1 position (2theta or chi in degrees)
#C  2 average intensity (sum of all counts in the region divided with number of pixels)
#C  3 Number of pixels in region)
#C  4 error (sum of sqrt(intensity) for all pixels divided by number)
#N 4
#L TTh  Int  N_pix  Err
32.99 	0.081967 	61 	0.072364
33.03 	0.060388 	1391 	0.059546
33.07 	0.078537 	2050 	0.076536
33.11 	0.075998 	2579 	0.075771
33.15 	0.062354 	2999 	0.059815
33.19 	0.061041 	3342 	0.059435
33.23 	0.059892 	3523 	0.058701
33.27 	0.058127 	3630 	0.056674
33.31 	0.066393 	3660 	0.065593
33.35 	0.059827 	3694 	0.059351
33.39 	0.055243 	3729 	0.054143
33.43 	0.060622 	3761 	0.058909
33.47 	0.058978 	3798 	0.058516
33.51 	0.056619 	3815 	0.056004
33.55 	0.066094 	3843 	0.064570
33.59 	0.058505 	3880 	0.057750
33.63 	0.058178 	3919 	0.056833
33.67 	0.064745 	3954 	0.063559
33.71 	0.057862 	3975 	0.056977
33.75 	0.054514 	3999 	0.053635
33.79 	0.059144 	4041 	0.058709
33.83 	0.059012 	4050 	0.057108
33.87 	0.054245 	4111 	0.053960
33.91 	0.058809 	4149 	0.057539
33.95 	0.056924 	4181 	0.055523
33.99 	0.062143 	4200 	0.061306
34.03 	0.056315 	4244 	0.055625
34.07 	0.055998 	4268 	0.055312
34.11 	0.056950 	4302 	0.056814
34.15 	0.060725 	4331 	0.060049
34.19 	0.056855 	4362 	0.055243
34.23 	0.052584 	4393 	0.051650
34.27 	0.057666 	4422 	0.056474
34.31 	0.067295 	4458 	0.065849
34.35 	0.055085 	4484 	0.054018
34.39 	0.054198 	4502 	0.053808
34.43 	0.056620 	4539 	0.055072
34.47 	0.060105 	4592 	0.059339
34.51 	0.059053 	4606 	0.058290
34.55 	0.055352 	4643 	0.054974
34.59 	0.061176 	4675 	0.060404
34.63 	0.053079 	4710 	0.051959
34.67 	0.063700 	4741 	0.062711
34.71 	0.054343 	4766 	0.053852
34.75 	0.053869 	4808 	0.052894
34.79 	0.058250 	4824 	0.057158
34.83 	0.055327 	4862 	0.054725
34.87 	0.056697 	4868 	0.055373
34.91 	0.056944 	4882 	0.055624
34.95 	0.058896 	4890 	0.058177
34.99 	0.056769 	4897 	0.055932
35.03 	0.056646 	4943 	0.055935
35.07 	0.059109 	4940 	0.057568
35.11 	0.056600 	4947 	0.055534
35.15 	0.060563 	4937 	0.059733
35.19 	0.055241 	4942 	0.054530
35.23 	0.059252 	4945 	0.058659
35.27 	0.055376 	4948 	0.054547
35.31 	0.061829 	4933 	0.060958
35.35 	0.056860 	4942 	0.056010
35.39 	0.053387 	4945 	0.051729
35.43 	0.059396 	4933 	0.058208
35.47 	0.051714 	4931 	0.050882
35.51 	0.062931 	4926 	0.062337
35.55 	0.056421 	4945 	0.054624
35.59 	0.060465 	4945 	0.059024
35.63 	0.058264 	4943 	0.056961
35.67 	0.053015 	4942 	0.051948
35.71 	0.054081 	4937 	0.053370
35.75 	0.057392 	4931 	0.056442
35.79 	0.053122 	4932 	0.052885
35.83 	0.053376 	4946 	0.051936
35.87 	0.055860 	4923 	0.054908
35.91 	0.054597 	4927 	0.054122
35.95 	0.059386 	4917 	0.058671
35.99 	0.057906 	4939 	0.057551
36.03 	0.063322 	4943 	0.062611
36.07 	0.062361 	4939 	0.061056
36.11 	0.054981 	4929 	0.054387
36.15 	0.061348 	4939 	0.060518
36.19 	0.064372 	4940 	0.063187
36.23 	0.054509 	4935 	0.053915
36.27 	0.060102 	4925 	0.059745
36.31 	0.057833 	4928 	0.057001
36.35 	0.060661 	4929 	0.059592
36.39 	0.060354 	4921 	0.058310
36.43 	0.056209 	4928 	0.055377
36.47 	0.050243 	4936 	0.049294
36.51 	0.056963 	4933 	0.055657
36.55 	0.053582 	4927 	0.053226
36.59 	0.062361 	4939 	0.060918
36.63 	0.059826 	4931 	0.058638
36.67 	0.054767 	4930 	0.054054
36.71 	0.057102 	4921 	0.056626
36.75 	0.051173 	4944 	0.050818
36.79 	0.054867 	4921 	0.054391
36.83 	0.062055 	4915 	0.060228
36.87 	0.054409 	4944 	0.053817
36.91 	0.047764 	4941 	0.047408
36.95 	0.056558 	4933 	0.055489
36.99 	0.061601 	4935 	0.060533
37.03 	0.055037 	4924 	0.054204
37.07 	0.054509 	4935 	0.053559
37.11 	0.052888 	4935 	0.052275
37.15 	0.052760 	4909 	0.052164
37.19 	0.052792 	4925 	0.051840
37.23 	0.056120 	4918 	0.055048
37.27 	0.051492 	4894 	0.051133
37.31 	0.058967 	4935 	0.057048
37.35 	0.055893 	4938 	0.055300
37.39 	0.051308 	4931 	0.050695
37.43 	0.056772 	4932 	0.055822
37.47 	0.054372 	4929 	0.053540
37.51 	0.055544 	4933 	0.055307
37.55 	0.053955 	4930 	0.053599
37.59 	0.060224 	4915 	0.058913
37.63 	0.051637 	4919 	0.051041
37.67 	0.050571 	4904 	0.049735
37.71 	0.055589 	4929 	0.054757
37.75 	0.051822 	4940 	0.051110
37.79 	0.053955 	4930 	0.053361
37.83 	0.052033 	4920 	0.050961
37.87 	0.054464 	4939 	0.053871
37.91 	0.060041 	4930 	0.059446
37.95 	0.061166 	4921 	0.060076
37.99 	0.054153 	4912 	0.053438
38.03 	0.054594 	4909 	0.053758
38.07 	0.058057 	4909 	0.057341
38.11 	0.051064 	4935 	0.050708
38.15 	0.060797 	4918 	0.059348
38.19 	0.060041 	4930 	0.059446
38.23 	0.064601 	4938 	0.063633
38.27 	0.062069 	4930 	0.060485
38.31 	0.066978 	4927 	0.065789
38.35 	0.074675 	4928 	0.072773
38.39 	0.074150 	4909 	0.072598
38.43 	0.076688 	4916 	0.075735
38.47 	0.074180 	4907 	0.071623
38.51 	0.083131 	4932 	0.080636
38.55 	0.077796 	4936 	0.076372
38.59 	0.075548 	4924 	0.073883
38.63 	0.076158 	4924 	0.074016
38.67 	0.070286 	4937 	0.068486
38.71 	0.069456 	4924 	0.068028
38.75 	0.070022 	4927 	0.067763
38.79 	0.057357 	4934 	0.056289
38.83 	0.057939 	4919 	0.057085
38.87 	0.057626 	4911 	0.056671
38.91 	0.058332 	4903 	0.056540
38.95 	0.056934 	4918 	0.055485
38.99 	0.054081 	4937 	0.053132
39.03 	0.054722 	4934 	0.053990
39.07 	0.046507 	4924 	0.045674
39.11 	0.050294 	4931 	0.049581
39.15 	0.047202 	4915 	0.046368
39.19 	0.053488 	4917 	0.052773
39.23 	0.046497 	4925 	0.045665
39.27 	0.050509 	4910 	0.050390
39.31 	0.045864 	4884 	0.045864
39.35 	0.050051 	4935 	0.049695
39.39 	0.053561 	4929 	0.052491
39.43 	0.049260 	4933 	0.048548
39.47 	0.045907 	4923 	0.045669
39.51 	0.044476 	4924 	0.043643
39.55 	0.049604 	4919 	0.049127
39.59 	0.045399 	4912 	0.044545
39.63 	0.050996 	4922 	0.050519
39.67 	0.045797 	4913 	0.045558
39.71 	0.043922 	4895 	0.043204
39.75 	0.042614 	4928 	0.042019
39.79 	0.046285 	4926 	0.045690
39.83 	0.045602 	4934 	0.044533
39.87 	0.044264 	4925 	0.043312
39.91 	0.045307 	4922 	0.044236
39.95 	0.044354 	4915 	0.043520
39.99 	0.041160 	4932 	0.040685
40.03 	0.040990 	4928 	0.040396
40.07 	0.039610 	4923 	0.039134
40.11 	0.042718 	4916 	0.042122
40.15 	0.044779 	4913 	0.044302
40.19 	0.041996 	4929 	0.041640
40.23 	0.046837 	4932 	0.046718
40.27 	0.053271 	4937 	0.052085
40.31 	0.044746 	4939 	0.044509
40.35 	0.042692 	4919 	0.042453
40.39 	0.045224 	4931 	0.044630
40.43 	0.045916 	4922 	0.045321
40.47 	0.047580 	4918 	0.046985
40.51 	0.039618 	4922 	0.039618
40.55 	0.037490 	4908 	0.036893
40.59 	0.041118 	4937 	0.040525
40.63 	0.038945 	4930 	0.038945
40.67 	0.042174 	4932 	0.042055
40.71 	0.044809 	4932 	0.044453
40.75 	0.040560 	4931 	0.040085
40.79 	0.039602 	4924 	0.039007
40.83 	0.044643 	4928 	0.044049
40.87 	0.045455 	4928 	0.044385
40.91 	0.046923 	4923 	0.046209
40.95 	0.041319 	4913 	0.040842
40.99 	0.045288 	4924 	0.045050
41.03 	0.042406 	4905 	0.042047
41.07 	0.045842 	4930 	0.045010
41.11 	0.037487 	4935 	0.037013
41.15 	0.041692 	4941 	0.041455
41.19 	0.039959 	4930 	0.039603
41.23 	0.041709 	4939 	0.041334
41.27 	0.040154 	4931 	0.040035
41.31 	0.039935 	4933 	0.039579
41.35 	0.041920 	4938 	0.041208
41.39 	0.047233 	4933 	0.046995
41.43 	0.039765 	4929 	0.039408
41.47 	0.041819 	4926 	0.041224
41.51 	0.037854 	4940 	0.037736
41.55 	0.037893 	4935 	0.037280
41.59 	0.038719 	4933 	0.037512
41.63 	0.038680 	4938 	0.038442
41.67 	0.041903 	4940 	0.040954
41.71 	0.040940 	4934 	0.040703
41.75 	0.035098 	4929 	0.034742
41.79 	0.037015 	4944 	0.036422
41.83 	0.043628 	4928 	0.042915
41.87 	0.040729 	4935 	0.040492
41.91 	0.038898 	4936 	0.038661
41.95 	0.032448 	4931 	0.032448
41.99 	0.039959 	4905 	0.039123
42.03 	0.034217 	4939 	0.033980
42.07 	0.035852 	4937 	0.035614
42.11 	0.036400 	4945 	0.036163
42.15 	0.040097 	4938 	0.039623
42.19 	0.040954 	4908 	0.040595
42.23 	0.041905 	4892 	0.041426
42.27 	0.041444 	4874 	0.041084
42.31 	0.038517 	4855 	0.038396
42.35 	0.038859 	4838 	0.038375
42.39 	0.036012 	4804 	0.035646
42.43 	0.043823 	4792 	0.042845
42.47 	0.034627 	4765 	0.034382
42.51 	0.038162 	4743 	0.037153
42.55 	0.036958 	4708 	0.036461
42.59 	0.038486 	4729 	0.038238
42.63 	0.034615 	4709 	0.034241
42.67 	0.038642 	4684 	0.038017
42.71 	0.040103 	4663 	0.039600
42.75 	0.033138 	4617 	0.032885
42.79 	0.036883 	4582 	0.036500
42.83 	0.037257 	4536 	0.036870
42.87 	0.039564 	4499 	0.039434
42.91 	0.041741 	4456 	0.041084
42.95 	0.042799 	4416 	0.042666
42.99 	0.036488 	4385 	0.036087
43.03 	0.039003 	4333 	0.038462
43.07 	0.041667 	4296 	0.041121
43.11 	0.037133 	4255 	0.036857
43.15 	0.039467 	4206 	0.039050
43.19 	0.034573 	4194 	0.034294
43.23 	0.043091 	4154 	0.042668
43.27 	0.034592 	4105 	0.034307
43.31 	0.036038 	4079 	0.035607
43.35 	0.035962 	4032 	0.035091
43.39 	0.042979 	4002 	0.041954
43.43 	0.043939 	3960 	0.043644
43.47 	0.039021 	3921 	0.038572
43.51 	0.035079 	3877 	0.034776
43.55 	0.039474 	2964 	0.039474
43.59 	0.035510 	1746 	0.035174
43.63 	0.039960 	1001 	0.039960
43.67 	0.033865 	502 	0.033865
43.71 	0.029289 	239 	0.029289
43.75 	0.062500 	16 	0.062500