File: Example_Data/25SC_s1_0037.002.dat
#F C:\frames\spec\25SC_s1_0037.002
#C title =s:37 frm:2 25SC_s1
#C wavelength =0.15406

#S 1  fr_average C:\frames\spec\25SC_s1_0037.002 C:\win32app\speccom\mask.axs chi 0 180 0 360 0.02
#C 2 theta =0.000000 to 180 deg
#C   q   =0.000000 to 81.568 nm^-1
#C  chi  =0.000000 to 360 deg
#C collumns:
#C  1 position (2theta or chi in degrees)
#C  2 average intensity (sum of all counts in the region divided with number of pixels)
#C  3 Number of pixels in region)
#C  4 error (sum of sqrt(intensity) for all pixels divided by number)
#N 4
#L TTh  Int  N_pix  Err
32.99 	0.065574 	61 	0.065574
33.03 	0.055356 	1391 	0.054514
33.07 	0.050732 	2050 	0.049874
33.11 	0.057387 	2579 	0.055797
33.15 	0.054685 	2999 	0.053708
33.19 	0.060144 	3342 	0.058713
33.23 	0.063014 	3523 	0.062017
33.27 	0.054545 	3630 	0.053739
33.31 	0.057377 	3660 	0.055937
33.35 	0.051164 	3694 	0.050847
33.39 	0.058729 	3729 	0.057446
33.43 	0.056900 	3761 	0.055758
33.47 	0.058452 	3798 	0.057681
33.51 	0.053735 	3815 	0.052968
33.55 	0.056987 	3843 	0.056377
33.59 	0.058763 	3880 	0.057404
33.63 	0.059454 	3919 	0.057785
33.67 	0.055387 	3954 	0.054350
33.71 	0.057358 	3975 	0.056474
33.75 	0.055514 	3999 	0.054635
33.79 	0.051472 	4041 	0.051327
33.83 	0.065185 	4050 	0.064173
33.87 	0.056434 	4111 	0.055271
33.91 	0.053748 	4149 	0.053042
33.95 	0.057642 	4181 	0.057221
33.99 	0.056190 	4200 	0.055912
34.03 	0.056079 	4244 	0.055113
34.07 	0.055295 	4268 	0.054746
34.11 	0.056718 	4302 	0.056037
34.15 	0.056107 	4331 	0.055160
34.19 	0.061210 	4362 	0.059733
34.23 	0.060323 	4393 	0.058856
34.27 	0.054274 	4422 	0.053612
34.31 	0.058098 	4458 	0.057572
34.35 	0.053078 	4484 	0.052032
34.39 	0.052421 	4502 	0.051640
34.43 	0.054417 	4539 	0.053514
34.47 	0.054225 	4592 	0.053204
34.51 	0.054060 	4606 	0.052915
34.55 	0.054491 	4643 	0.053734
34.59 	0.056471 	4675 	0.054967
34.63 	0.056688 	4710 	0.056190
34.67 	0.051677 	4741 	0.051430
34.71 	0.054343 	4766 	0.053729
34.75 	0.054077 	4808 	0.053711
34.79 	0.055970 	4824 	0.055120
34.83 	0.052859 	4862 	0.052256
34.87 	0.054437 	4868 	0.054076
34.91 	0.057354 	4882 	0.057114
34.95 	0.052352 	4890 	0.051633
34.99 	0.052073 	4897 	0.051355
35.03 	0.053004 	4943 	0.052293
35.07 	0.056883 	4940 	0.056053
35.11 	0.060239 	4947 	0.058936
35.15 	0.059753 	4937 	0.058685
35.19 	0.052408 	4942 	0.051697
35.23 	0.058645 	4945 	0.057204
35.27 	0.052951 	4948 	0.051767
35.31 	0.055747 	4933 	0.054441
35.35 	0.062323 	4942 	0.060901
35.39 	0.063701 	4945 	0.062161
35.43 	0.054733 	4933 	0.054377
35.47 	0.054553 	4931 	0.053602
35.51 	0.051766 	4926 	0.051172
35.55 	0.058443 	4945 	0.057732
35.59 	0.052781 	4945 	0.051221
35.63 	0.049565 	4943 	0.048143
35.67 	0.049777 	4942 	0.049066
35.71 	0.056512 	4937 	0.056037
35.75 	0.056581 	4931 	0.056106
35.79 	0.045215 	4932 	0.043889
35.83 	0.051759 	4946 	0.050693
35.87 	0.053423 	4923 	0.052709
35.91 	0.053379 	4927 	0.052904
35.95 	0.052064 	4917 	0.050635
35.99 	0.052642 	4939 	0.051792
36.03 	0.054825 	4943 	0.054706
36.07 	0.056894 	4939 	0.056182
36.11 	0.059038 	4929 	0.057236
36.15 	0.053250 	4939 	0.052657
36.19 	0.055466 	4940 	0.054517
36.23 	0.059574 	4935 	0.058625
36.27 	0.055431 	4925 	0.054104
36.31 	0.051542 	4928 	0.050829
36.35 	0.057618 	4929 	0.056667
36.39 	0.055477 	4921 	0.055357
36.43 	0.056412 	4928 	0.055343
36.47 	0.054295 	4936 	0.053089
36.51 	0.052504 	4933 	0.051554
36.55 	0.058250 	4927 	0.057418
36.59 	0.057906 	4939 	0.056839
36.63 	0.058406 	4931 	0.057099
36.67 	0.055984 	4930 	0.055014
36.71 	0.054664 	4921 	0.053235
36.75 	0.050364 	4944 	0.050246
36.79 	0.056493 	4921 	0.055302
36.83 	0.050458 	4915 	0.049743
36.87 	0.052994 	4944 	0.051690
36.91 	0.048573 	4941 	0.047032
36.95 	0.048247 	4933 	0.047059
36.99 	0.049037 	4935 	0.048563
37.03 	0.054224 	4924 	0.053154
37.07 	0.056535 	4935 	0.055941
37.11 	0.055522 	4935 	0.053979
37.15 	0.054186 	4909 	0.053093
37.19 	0.046904 	4925 	0.046309
37.23 	0.053070 	4918 	0.051522
37.27 	0.049040 	4894 	0.048202
37.31 	0.050253 	4935 	0.049304
37.35 	0.046983 	4938 	0.046271
37.39 	0.046846 	4931 	0.046015
37.43 	0.050081 	4932 	0.048993
37.47 	0.050720 	4929 	0.050245
37.51 	0.051895 	4933 	0.050945
37.55 	0.046045 	4930 	0.045193
37.59 	0.050051 	4915 	0.049097
37.63 	0.046554 	4919 	0.046078
37.67 	0.046697 	4904 	0.046099
37.71 	0.052343 	4929 	0.051016
37.75 	0.049595 	4940 	0.048647
37.79 	0.047870 	4930 	0.046801
37.83 	0.050610 	4920 	0.049419
37.87 	0.049200 	4939 	0.049082
37.91 	0.046856 	4930 	0.046262
37.95 	0.050193 	4921 	0.049360
37.99 	0.051303 	4912 	0.050349
38.03 	0.057446 	4909 	0.056491
38.07 	0.043593 	4909 	0.043235
38.11 	0.050659 	4935 	0.050184
38.15 	0.055510 	4918 	0.054438
38.19 	0.055578 	4930 	0.054628
38.23 	0.050628 	4938 	0.050272
38.27 	0.060041 	4930 	0.059090
38.31 	0.058047 	4927 	0.057453
38.35 	0.058442 	4928 	0.057372
38.39 	0.058871 	4909 	0.057440
38.43 	0.067941 	4916 	0.066631
38.47 	0.064194 	4907 	0.063000
38.51 	0.064882 	4932 	0.064764
38.55 	0.063209 	4936 	0.061429
38.59 	0.054630 	4924 	0.053640
38.63 	0.059301 	4924 	0.058330
38.67 	0.052258 	4937 	0.051665
38.71 	0.051381 	4924 	0.050786
38.75 	0.051959 	4927 	0.051007
38.79 	0.050061 	4934 	0.049348
38.83 	0.054889 	4919 	0.054175
38.87 	0.050499 	4911 	0.049902
38.91 	0.046094 	4903 	0.045855
38.95 	0.050834 	4918 	0.050595
38.99 	0.044156 	4937 	0.043800
39.03 	0.047831 	4934 	0.047713
39.07 	0.044273 	4924 	0.044035
39.11 	0.045630 	4931 	0.045036
39.15 	0.042319 	4915 	0.041366
39.19 	0.045149 	4917 	0.044673
39.23 	0.050964 	4925 	0.050727
39.27 	0.046843 	4910 	0.046008
39.31 	0.050369 	4884 	0.050129
39.35 	0.046201 	4935 	0.045251
39.39 	0.044634 	4929 	0.043921
39.43 	0.040543 	4933 	0.040425
39.47 	0.042860 	4923 	0.041789
39.51 	0.043054 	4924 	0.042460
39.55 	0.042488 	4919 	0.042131
39.59 	0.048249 	4912 	0.047057
39.63 	0.038805 	4922 	0.038567
39.67 	0.042744 	4913 	0.042505
39.71 	0.041675 	4895 	0.040478
39.75 	0.043831 	4928 	0.042880
39.79 	0.046285 	4926 	0.045453
39.83 	0.043170 	4934 	0.042576
39.87 	0.044467 	4925 	0.043872
39.91 	0.043885 	4922 	0.043290
39.95 	0.043947 	4915 	0.043232
39.99 	0.042985 	4932 	0.042747
40.03 	0.042614 	4928 	0.042138
40.07 	0.046110 	4923 	0.045396
40.11 	0.044142 	4916 	0.043427
40.15 	0.045593 	4913 	0.044759
40.19 	0.042605 	4929 	0.042248
40.23 	0.041971 	4932 	0.041377
40.27 	0.037067 	4937 	0.036948
40.31 	0.037862 	4939 	0.037506
40.35 	0.045334 	4919 	0.044739
40.39 	0.039749 	4931 	0.039155
40.43 	0.043478 	4922 	0.042764
40.47 	0.040870 	4918 	0.040036
40.51 	0.045916 	4922 	0.045321
40.55 	0.040139 	4908 	0.039661
40.59 	0.045169 	4937 	0.044576
40.63 	0.038134 	4930 	0.037659
40.67 	0.043998 	4932 	0.043523
40.71 	0.044201 	4932 	0.043845
40.75 	0.043805 	4931 	0.042854
40.79 	0.041633 	4924 	0.041157
40.83 	0.040179 	4928 	0.039822
40.87 	0.043628 	4928 	0.042677
40.91 	0.036766 	4923 	0.036647
40.95 	0.044372 	4913 	0.043895
40.99 	0.047116 	4924 	0.046045
41.03 	0.044444 	4905 	0.044086
41.07 	0.035497 	4930 	0.035140
41.11 	0.040122 	4935 	0.039528
41.15 	0.041692 	4941 	0.041099
41.19 	0.039959 	4930 	0.039484
41.23 	0.039887 	4939 	0.039056
41.27 	0.045021 	4931 	0.044546
41.31 	0.039935 	4933 	0.039579
41.35 	0.040502 	4938 	0.040146
41.39 	0.042773 	4933 	0.042179
41.43 	0.035910 	4929 	0.035078
41.47 	0.038368 	4926 	0.037654
41.51 	0.037449 	4940 	0.037331
41.55 	0.040324 	4935 	0.040087
41.59 	0.039124 	4933 	0.039006
41.63 	0.037667 	4938 	0.037074
41.67 	0.037045 	4940 	0.036926
41.71 	0.040130 	4934 	0.040011
41.75 	0.041388 	4929 	0.040437
41.79 	0.040655 	4944 	0.040300
41.83 	0.040584 	4928 	0.039990
41.87 	0.042351 	4935 	0.041362
41.91 	0.039100 	4936 	0.038270
41.95 	0.035895 	4931 	0.035282
41.99 	0.041590 	4905 	0.040754
42.03 	0.031788 	4939 	0.031432
42.07 	0.042131 	4937 	0.041656
42.11 	0.041052 	4945 	0.040104
42.15 	0.037870 	4938 	0.037276
42.19 	0.041565 	4908 	0.040849
42.23 	0.036590 	4892 	0.036471
42.27 	0.034469 	4874 	0.034228
42.31 	0.036045 	4855 	0.035442
42.35 	0.035759 	4838 	0.035516
42.39 	0.036220 	4804 	0.035976
42.43 	0.037145 	4792 	0.036901
42.47 	0.040294 	4765 	0.040048
42.51 	0.039216 	4743 	0.038845
42.55 	0.041631 	4708 	0.041009
42.59 	0.036371 	4729 	0.035876
42.63 	0.038862 	4709 	0.037991
42.67 	0.032237 	4684 	0.031987
42.71 	0.035385 	4663 	0.035134
42.75 	0.039203 	4617 	0.038822
42.79 	0.038411 	4582 	0.038283
42.83 	0.035053 	4536 	0.034665
42.87 	0.038675 	4499 	0.038154
42.91 	0.038600 	4456 	0.038205
42.95 	0.032609 	4416 	0.032189
42.99 	0.037856 	4385 	0.037434
43.03 	0.034387 	4333 	0.033846
43.07 	0.037244 	4296 	0.037244
43.11 	0.038543 	4255 	0.038405
43.15 	0.031859 	4206 	0.031441
43.19 	0.042918 	4194 	0.041801
43.23 	0.037554 	4154 	0.036685
43.27 	0.043849 	4105 	0.043706
43.31 	0.033587 	4079 	0.033299
43.35 	0.031746 	4032 	0.031601
43.39 	0.039730 	4002 	0.039584
43.43 	0.034091 	3960 	0.033795
43.47 	0.036980 	3921 	0.036383
43.51 	0.037400 	3877 	0.037098
43.55 	0.039811 	2964 	0.039218
43.59 	0.037228 	1746 	0.036892
43.63 	0.024975 	1001 	0.024975
43.67 	0.023904 	502 	0.023904
43.71 	0.029289 	239 	0.029289
43.75 	0.062500 	16 	0.062500