File: Example_Data/25SC_s1_0009.002.dat
#F C:\frames\spec\25SC_s1_0009.002
#C title =s:9 frm:2 25SC_s1
#C wavelength =0.15406

#S 1  fr_average C:\frames\spec\25SC_s1_0009.002 C:\win32app\speccom\mask.axs chi 0 180 0 360 0.02
#C 2 theta =0.000000 to 180 deg
#C   q   =0.000000 to 81.568 nm^-1
#C  chi  =0.000000 to 360 deg
#C collumns:
#C  1 position (2theta or chi in degrees)
#C  2 average intensity (sum of all counts in the region divided with number of pixels)
#C  3 Number of pixels in region)
#C  4 error (sum of sqrt(intensity) for all pixels divided by number)
#N 4
#L TTh  Int  N_pix  Err
32.99 	0.081967 	61 	0.081967
33.03 	0.046729 	1391 	0.046729
33.07 	0.064390 	2050 	0.062962
33.11 	0.069407 	2579 	0.067817
33.15 	0.057352 	2999 	0.056180
33.19 	0.058947 	3342 	0.057194
33.23 	0.052228 	3523 	0.051729
33.27 	0.052617 	3630 	0.052133
33.31 	0.054645 	3660 	0.053845
33.35 	0.058202 	3694 	0.056775
33.39 	0.061679 	3729 	0.060265
33.43 	0.062749 	3761 	0.062126
33.47 	0.058715 	3798 	0.058098
33.51 	0.053735 	3815 	0.052814
33.55 	0.059589 	3843 	0.058217
33.59 	0.057732 	3880 	0.056524
33.63 	0.064557 	3919 	0.063362
33.67 	0.059939 	3954 	0.059050
33.71 	0.059874 	3975 	0.058843
33.75 	0.055264 	3999 	0.054238
33.79 	0.060629 	4041 	0.059904
33.83 	0.054074 	4050 	0.053785
33.87 	0.059110 	4111 	0.058540
33.91 	0.052784 	4149 	0.052078
33.95 	0.059077 	4181 	0.057816
33.99 	0.058810 	4200 	0.057950
34.03 	0.060085 	4244 	0.058567
34.07 	0.053655 	4268 	0.053106
34.11 	0.054858 	4302 	0.054041
34.15 	0.054491 	4331 	0.053679
34.19 	0.065108 	4362 	0.063608
34.23 	0.052584 	4393 	0.051650
34.27 	0.066033 	4422 	0.063716
34.31 	0.055630 	4458 	0.055236
34.35 	0.053078 	4484 	0.052555
34.39 	0.055087 	4502 	0.054826
34.43 	0.061247 	4539 	0.060085
34.47 	0.062936 	4592 	0.062170
34.51 	0.061876 	4606 	0.060710
34.55 	0.061383 	4643 	0.059974
34.59 	0.055829 	4675 	0.055202
34.63 	0.057113 	4710 	0.055993
34.67 	0.057161 	4741 	0.056420
34.71 	0.055392 	4766 	0.055024
34.75 	0.058236 	4808 	0.057018
34.79 	0.061153 	4824 	0.060040
34.83 	0.059852 	4862 	0.057663
34.87 	0.062243 	4868 	0.061281
34.91 	0.050594 	4882 	0.049874
34.95 	0.055010 	4890 	0.054052
34.99 	0.051868 	4897 	0.050653
35.03 	0.059073 	4943 	0.058244
35.07 	0.059109 	4940 	0.058161
35.11 	0.057611 	4947 	0.057236
35.15 	0.061778 	4937 	0.060473
35.19 	0.060502 	4942 	0.059198
35.23 	0.061476 	4945 	0.058495
35.27 	0.061641 	4948 	0.060694
35.31 	0.055950 	4933 	0.054762
35.35 	0.062525 	4942 	0.061577
35.39 	0.060061 	4945 	0.059231
35.43 	0.058180 	4933 	0.056992
35.47 	0.054553 	4931 	0.054196
35.51 	0.059683 	4926 	0.059089
35.55 	0.057634 	4945 	0.056923
35.59 	0.059858 	4945 	0.058773
35.63 	0.055634 	4943 	0.054805
35.67 	0.056253 	4942 	0.055304
35.71 	0.062791 	4937 	0.061486
35.75 	0.063882 	4931 	0.063030
35.79 	0.062855 	4932 	0.061410
35.83 	0.056409 	4946 	0.055699
35.87 	0.056063 	4923 	0.054754
35.91 	0.064948 	4927 	0.063403
35.95 	0.055318 	4917 	0.054365
35.99 	0.062158 	4939 	0.060972
36.03 	0.056443 	4943 	0.055732
36.07 	0.052440 	4939 	0.051847
36.11 	0.056807 	4929 	0.055856
36.15 	0.057704 	4939 	0.056755
36.19 	0.058300 	4940 	0.057351
36.23 	0.057953 	4935 	0.056984
36.27 	0.063350 	4925 	0.061923
36.31 	0.059862 	4928 	0.059387
36.35 	0.058633 	4929 	0.057405
36.39 	0.055680 	4921 	0.054727
36.43 	0.054180 	4928 	0.053586
36.47 	0.058347 	4936 	0.057516
36.51 	0.059599 	4933 	0.058767
36.55 	0.059265 	4927 	0.057839
36.59 	0.064386 	4939 	0.063199
36.63 	0.058609 	4931 	0.056946
36.67 	0.058621 	4930 	0.057195
36.71 	0.058321 	4921 	0.057607
36.75 	0.062298 	4944 	0.061350
36.79 	0.055273 	4921 	0.054678
36.83 	0.058800 	4915 	0.057489
36.87 	0.061084 	4944 	0.060373
36.91 	0.063752 	4941 	0.062685
36.95 	0.061220 	4933 	0.060033
36.99 	0.054306 	4935 	0.053475
37.03 	0.060723 	4924 	0.060009
37.07 	0.055522 	4935 	0.054810
37.11 	0.052482 	4935 	0.052126
37.15 	0.060297 	4909 	0.059104
37.19 	0.062538 	4925 	0.061824
37.23 	0.052867 	4918 	0.051676
37.27 	0.054352 	4894 	0.053634
37.31 	0.055927 	4935 	0.055334
37.35 	0.053260 	4938 	0.052430
37.39 	0.058812 	4931 	0.057861
37.43 	0.052920 	4932 	0.052445
37.47 	0.053763 	4929 	0.053050
37.51 	0.060004 	4933 	0.059054
37.55 	0.056389 	4930 	0.054964
37.59 	0.053306 	4915 	0.052214
37.63 	0.057329 	4919 	0.056614
37.67 	0.054038 	4904 	0.052962
37.71 	0.052140 	4929 	0.050952
37.75 	0.057895 	4940 	0.057302
37.79 	0.049899 	4930 	0.049661
37.83 	0.052642 	4920 	0.051908
37.87 	0.052440 	4939 	0.051491
37.91 	0.059026 	4930 	0.058195
37.95 	0.055273 	4921 	0.054182
37.99 	0.058632 	4912 	0.058155
38.03 	0.051742 	4909 	0.051026
38.07 	0.052149 	4909 	0.051314
38.11 	0.045795 	4935 	0.045083
38.15 	0.056324 	4918 	0.055133
38.19 	0.057201 	4930 	0.056726
38.23 	0.054881 	4938 	0.054050
38.27 	0.055781 	4930 	0.054930
38.31 	0.056018 	4927 	0.055423
38.35 	0.058847 	4928 	0.058015
38.39 	0.057038 	4909 	0.055964
38.43 	0.059805 	4916 	0.058851
38.47 	0.061137 	4907 	0.060302
38.51 	0.059205 	4932 	0.058136
38.55 	0.058144 	4936 	0.057195
38.59 	0.062957 	4924 	0.062005
38.63 	0.062348 	4924 	0.061396
38.67 	0.059145 	4937 	0.058671
38.71 	0.062957 	4924 	0.061767
38.75 	0.059265 	4927 	0.058314
38.79 	0.064248 	4934 	0.063180
38.83 	0.057329 	4919 	0.056257
38.87 	0.051721 	4911 	0.051005
38.91 	0.051397 	4903 	0.050800
38.95 	0.052867 	4918 	0.052152
38.99 	0.049625 	4937 	0.048676
39.03 	0.048845 	4934 	0.048132
39.07 	0.047319 	4924 	0.046605
39.11 	0.054350 	4931 	0.053400
39.15 	0.048016 	4915 	0.047778
39.19 	0.050234 	4917 	0.049757
39.23 	0.048731 	4925 	0.048136
39.27 	0.049491 	4910 	0.048775
39.31 	0.046274 	4884 	0.045794
39.35 	0.045390 	4935 	0.045034
39.39 	0.046460 	4929 	0.046103
39.43 	0.047030 	4933 	0.046436
39.47 	0.050173 	4923 	0.049816
39.51 	0.041227 	4924 	0.040870
39.55 	0.040659 	4919 	0.040301
39.59 	0.045399 	4912 	0.044922
39.63 	0.047135 	4922 	0.046421
39.67 	0.054142 	4913 	0.052672
39.71 	0.047600 	4895 	0.047001
39.75 	0.049716 	4928 	0.049122
39.79 	0.046488 	4926 	0.046131
39.83 	0.042764 	4934 	0.042171
39.87 	0.043249 	4925 	0.042634
39.91 	0.042869 	4922 	0.042631
39.95 	0.038657 	4915 	0.038538
39.99 	0.048865 	4932 	0.048389
40.03 	0.045455 	4928 	0.045098
40.07 	0.040219 	4923 	0.039505
40.11 	0.044955 	4916 	0.044359
40.15 	0.046000 	4913 	0.045047
40.19 	0.046054 	4929 	0.045697
40.23 	0.046634 	4932 	0.046040
40.27 	0.040105 	4937 	0.039631
40.31 	0.044948 	4939 	0.044474
40.35 	0.048587 	4919 	0.047277
40.39 	0.047252 	4931 	0.046777
40.43 	0.040837 	4922 	0.040004
40.47 	0.044327 	4918 	0.043354
40.51 	0.040837 	4922 	0.040242
40.55 	0.042584 	4908 	0.041867
40.59 	0.041118 	4937 	0.040406
40.63 	0.049087 	4930 	0.048612
40.67 	0.046026 	4932 	0.045788
40.71 	0.044809 	4932 	0.044453
40.75 	0.043196 	4931 	0.042464
40.79 	0.045898 	4924 	0.045184
40.83 	0.046063 	4928 	0.045707
40.87 	0.048904 	4928 	0.048072
40.91 	0.044079 	4923 	0.043365
40.95 	0.038266 	4913 	0.038027
40.99 	0.041227 	4924 	0.040513
41.03 	0.043629 	4905 	0.043032
41.07 	0.045233 	4930 	0.044877
41.11 	0.041945 	4935 	0.041233
41.15 	0.041490 	4941 	0.041252
41.19 	0.044422 	4930 	0.044184
41.23 	0.038064 	4939 	0.037590
41.27 	0.040154 	4931 	0.039917
41.31 	0.041354 	4933 	0.040879
41.35 	0.042932 	4938 	0.042221
41.39 	0.043584 	4933 	0.042872
41.43 	0.041591 	4929 	0.040996
41.47 	0.042022 	4926 	0.041665
41.51 	0.046154 	4940 	0.045324
41.55 	0.047214 	4935 	0.046264
41.59 	0.045206 	4933 	0.044731
41.63 	0.046983 	4938 	0.046508
41.67 	0.044332 	4940 	0.043502
41.71 	0.042764 	4934 	0.041933
41.75 	0.042605 	4929 	0.041417
41.79 	0.038228 	4944 	0.037991
41.83 	0.042208 	4928 	0.041970
41.87 	0.043364 	4935 	0.042414
41.91 	0.040721 	4936 	0.040247
41.95 	0.041371 	4931 	0.041015
41.99 	0.041794 	4905 	0.041316
42.03 	0.040089 	4939 	0.039733
42.07 	0.037675 	4937 	0.037200
42.11 	0.037614 	4945 	0.037140
42.15 	0.035439 	4938 	0.034965
42.19 	0.038101 	4908 	0.037385
42.23 	0.041087 	4892 	0.040968
42.27 	0.041034 	4874 	0.039952
42.31 	0.033162 	4855 	0.033041
42.35 	0.041339 	4838 	0.040492
42.39 	0.039967 	4804 	0.039357
42.43 	0.039441 	4792 	0.039074
42.47 	0.036726 	4765 	0.036480
42.51 	0.039005 	4743 	0.038387
42.55 	0.039932 	4708 	0.039932
42.59 	0.040389 	4729 	0.040017
42.63 	0.040136 	4709 	0.039514
42.67 	0.039069 	4684 	0.038944
42.71 	0.040103 	4663 	0.039726
42.75 	0.039420 	4617 	0.038912
42.79 	0.039502 	4582 	0.039375
42.83 	0.039462 	4536 	0.039333
42.87 	0.036897 	4499 	0.036246
42.91 	0.040619 	4456 	0.040356
42.95 	0.035553 	4416 	0.035420
42.99 	0.037628 	4385 	0.037094
43.03 	0.039926 	4333 	0.039250
43.07 	0.039572 	4296 	0.039299
43.11 	0.035488 	4255 	0.034662
43.15 	0.036852 	4206 	0.036713
43.19 	0.043157 	4194 	0.043017
43.23 	0.042128 	4154 	0.041846
43.27 	0.038490 	4105 	0.038204
43.31 	0.039470 	4079 	0.039040
43.35 	0.041171 	4032 	0.040590
43.39 	0.033483 	4002 	0.033191
43.43 	0.041414 	3960 	0.040822
43.47 	0.034430 	3921 	0.033982
43.51 	0.041269 	3877 	0.040514
43.55 	0.041498 	2964 	0.040905
43.59 	0.037801 	1746 	0.037465
43.63 	0.036963 	1001 	0.036963
43.67 	0.049801 	502 	0.049801
43.71 	0.033473 	239 	0.033473
43.75 	0.000000 	16 	0.000000