File: Example_Data/25SC_s1_0026.000.dat
#F C:\frames\spec\25SC_s1_0026.000
#C title =s:26 frm:0 25SC_s1
#C wavelength =0.15406

#S 1  fr_average C:\frames\spec\25SC_s1_0026.000 C:\win32app\speccom\mask.axs chi 0 180 0 360 0.02
#C 2 theta =0.000000 to 180 deg
#C   q   =0.000000 to 81.568 nm^-1
#C  chi  =0.000000 to 360 deg
#C collumns:
#C  1 position (2theta or chi in degrees)
#C  2 average intensity (sum of all counts in the region divided with number of pixels)
#C  3 Number of pixels in region)
#C  4 error (sum of sqrt(intensity) for all pixels divided by number)
#N 4
#L TTh  Int  N_pix  Err
32.99 	0.065574 	61 	0.065574
33.03 	0.071891 	1391 	0.069785
33.07 	0.060976 	2050 	0.060976
33.11 	0.064754 	2579 	0.064072
33.15 	0.056019 	2999 	0.055237
33.19 	0.061341 	3342 	0.060464
33.23 	0.061311 	3523 	0.060979
33.27 	0.059780 	3630 	0.059295
33.31 	0.055191 	3660 	0.054231
33.35 	0.062534 	3694 	0.061424
33.39 	0.060338 	3729 	0.059081
33.43 	0.059027 	3761 	0.057625
33.47 	0.056872 	3798 	0.056409
33.51 	0.060026 	3815 	0.059412
33.55 	0.048139 	3843 	0.047682
33.59 	0.053351 	3880 	0.052143
33.63 	0.065323 	3919 	0.064426
33.67 	0.057663 	3954 	0.055885
33.71 	0.064151 	3975 	0.062358
33.75 	0.056764 	3999 	0.055739
33.79 	0.065330 	4041 	0.064461
33.83 	0.064198 	4050 	0.062607
33.87 	0.055461 	4111 	0.054606
33.91 	0.059291 	4149 	0.058303
33.95 	0.061708 	4181 	0.061147
33.99 	0.063810 	4200 	0.062973
34.03 	0.053487 	4244 	0.052659
34.07 	0.054358 	4268 	0.053809
34.11 	0.058810 	4302 	0.058538
34.15 	0.054260 	4331 	0.053313
34.19 	0.057542 	4362 	0.056199
34.23 	0.051673 	4393 	0.051406
34.27 	0.059928 	4422 	0.059000
34.31 	0.054284 	4458 	0.053496
34.35 	0.061775 	4484 	0.060578
34.39 	0.058196 	4502 	0.057025
34.43 	0.060145 	4539 	0.059242
34.47 	0.053789 	4592 	0.052131
34.51 	0.058185 	4606 	0.057422
34.55 	0.059014 	4643 	0.058130
34.59 	0.058610 	4675 	0.057983
34.63 	0.052866 	4710 	0.051996
34.67 	0.060325 	4741 	0.059563
34.71 	0.056861 	4766 	0.056369
34.75 	0.052413 	4808 	0.052047
34.79 	0.060323 	4824 	0.058866
34.83 	0.053476 	4862 	0.053114
34.87 	0.057108 	4868 	0.056025
34.91 	0.052642 	4882 	0.052162
34.95 	0.056442 	4890 	0.055483
34.99 	0.052890 	4897 	0.051574
35.03 	0.058264 	4943 	0.057553
35.07 	0.057287 	4940 	0.056220
35.11 	0.059834 	4947 	0.058887
35.15 	0.056107 	4937 	0.055395
35.19 	0.058074 	4942 	0.057362
35.23 	0.055410 	4945 	0.054699
35.27 	0.057599 	4948 	0.056159
35.31 	0.052909 	4933 	0.052315
35.35 	0.060502 	4942 	0.060028
35.39 	0.058038 	4945 	0.056834
35.43 	0.052504 	4933 	0.051554
35.47 	0.063273 	4931 	0.061966
35.51 	0.055014 	4926 	0.054420
35.55 	0.055814 	4945 	0.054629
35.59 	0.057634 	4945 	0.056805
35.63 	0.059883 	4943 	0.058342
35.67 	0.049373 	4942 	0.048899
35.71 	0.054487 	4937 	0.053162
35.75 	0.057392 	4931 	0.056679
35.79 	0.054745 	4932 	0.053676
35.83 	0.065305 	4946 	0.063884
35.87 	0.054438 	4923 	0.053248
35.91 	0.055409 	4927 	0.054696
35.95 	0.055115 	4917 	0.054162
35.99 	0.055679 	4939 	0.054493
36.03 	0.050577 	4943 	0.049866
36.07 	0.056692 	4939 	0.055506
36.11 	0.054981 	4929 	0.054149
36.15 	0.058514 	4939 	0.056853
36.19 	0.056883 	4940 	0.055460
36.23 	0.052685 	4935 	0.051854
36.27 	0.058883 	4925 	0.057912
36.31 	0.058644 	4928 	0.057674
36.35 	0.059850 	4929 	0.059374
36.39 	0.056696 	4921 	0.055624
36.43 	0.054992 	4928 	0.054279
36.47 	0.056118 	4936 	0.055288
36.51 	0.058788 	4933 	0.057205
36.55 	0.056221 	4927 	0.055131
36.59 	0.063981 	4939 	0.062795
36.63 	0.054553 	4931 	0.053602
36.67 	0.057404 	4930 	0.056315
36.71 	0.053038 	4921 	0.052443
36.75 	0.058455 	4944 	0.057507
36.79 	0.058931 	4921 	0.057860
36.83 	0.056155 	4915 	0.055678
36.87 	0.056634 	4944 	0.055568
36.91 	0.056871 	4941 	0.055567
36.95 	0.054328 	4933 	0.053616
36.99 	0.057143 	4935 	0.056431
37.03 	0.049959 	4924 	0.049464
37.07 	0.058359 	4935 	0.057409
37.11 	0.054711 	4935 	0.054118
37.15 	0.049094 	4909 	0.048139
37.19 	0.052792 	4925 	0.052554
37.23 	0.054087 	4918 	0.052896
37.27 	0.058848 	4894 	0.057651
37.31 	0.056738 	4935 	0.055907
37.35 	0.060348 	4938 	0.059162
37.39 	0.061042 	4931 	0.060567
37.43 	0.064071 	4932 	0.062884
37.47 	0.055792 	4929 	0.055317
37.51 	0.057369 	4933 	0.056419
37.55 	0.058012 	4930 	0.056824
37.59 	0.056765 	4915 	0.056050
37.63 	0.056109 	4919 	0.055633
37.67 	0.054038 	4904 	0.053440
37.71 	0.057212 	4929 	0.056381
37.75 	0.060729 	4940 	0.059662
37.79 	0.053550 	4930 	0.052956
37.83 	0.052236 	4920 	0.051640
37.87 	0.059526 	4939 	0.058459
37.91 	0.054361 	4930 	0.052579
37.95 	0.057712 	4921 	0.056521
37.99 	0.050489 	4912 	0.049773
38.03 	0.054594 	4909 	0.053997
38.07 	0.057242 	4909 	0.056764
38.11 	0.054711 	4935 	0.053999
38.15 	0.053884 	4918 	0.053149
38.19 	0.064097 	4930 	0.063266
38.23 	0.063994 	4938 	0.062432
38.27 	0.065517 	4930 	0.063616
38.31 	0.068196 	4927 	0.066630
38.35 	0.070617 	4928 	0.068953
38.39 	0.070686 	4909 	0.069255
38.43 	0.069162 	4916 	0.067494
38.47 	0.086203 	4907 	0.084055
38.51 	0.079481 	4932 	0.077581
38.55 	0.078606 	4936 	0.077044
38.59 	0.080829 	4924 	0.079282
38.63 	0.080829 	4924 	0.079163
38.67 	0.073121 	4937 	0.071698
38.71 	0.069659 	4924 	0.069044
38.75 	0.069616 	4927 	0.068408
38.79 	0.062829 	4934 	0.061523
38.83 	0.057735 	4919 	0.056902
38.87 	0.060476 	4911 	0.059522
38.91 	0.056700 	4903 	0.055725
38.95 	0.052054 	4918 	0.051220
38.99 	0.052258 	4937 	0.052021
39.03 	0.048237 	4934 	0.047524
39.07 	0.048538 	4924 	0.048300
39.11 	0.048266 	4931 	0.047791
39.15 	0.050865 	4915 	0.050150
39.19 	0.042709 	4917 	0.041994
39.23 	0.047716 	4925 	0.047002
39.27 	0.050102 	4910 	0.049744
39.31 	0.044021 	4884 	0.043661
39.35 	0.046201 	4935 	0.045963
39.39 	0.046257 	4929 	0.045781
39.43 	0.045814 	4933 	0.045339
39.47 	0.054641 	4923 	0.053809
39.51 	0.046101 	4924 	0.045625
39.55 	0.049604 	4919 	0.048889
39.59 	0.046010 	4912 	0.045294
39.63 	0.048557 	4922 	0.047843
39.67 	0.044169 	4913 	0.042957
39.71 	0.047191 	4895 	0.046353
39.75 	0.044846 	4928 	0.044251
39.79 	0.046285 	4926 	0.046285
39.83 	0.044183 	4934 	0.043590
39.87 	0.041015 	4925 	0.040421
39.91 	0.041650 	4922 	0.041174
39.95 	0.047813 	4915 	0.046979
39.99 	0.041971 	4932 	0.041338
40.03 	0.038758 	4928 	0.038520
40.07 	0.046516 	4923 	0.045921
40.11 	0.049227 	4916 	0.048870
40.15 	0.041726 	4913 	0.040891
40.19 	0.043619 	4929 	0.043025
40.23 	0.044607 	4932 	0.044132
40.27 	0.037472 	4937 	0.036998
40.31 	0.041304 	4939 	0.040711
40.35 	0.044928 	4919 	0.044690
40.39 	0.041574 	4931 	0.040960
40.43 	0.044494 	4922 	0.044256
40.47 	0.044327 	4918 	0.043851
40.51 	0.043072 	4922 	0.042477
40.55 	0.042380 	4908 	0.042022
40.59 	0.040308 	4937 	0.039932
40.63 	0.040771 	4930 	0.040296
40.67 	0.041363 	4932 	0.040531
40.71 	0.043593 	4932 	0.043118
40.75 	0.041371 	4931 	0.041133
40.79 	0.046710 	4924 	0.045520
40.83 	0.036932 	4928 	0.036100
40.87 	0.045860 	4928 	0.045266
40.91 	0.044485 	4923 	0.043890
40.95 	0.040301 	4913 	0.040301
40.99 	0.042039 	4924 	0.041920
41.03 	0.042202 	4905 	0.041844
41.07 	0.046045 	4930 	0.045688
41.11 	0.040932 	4935 	0.040576
41.15 	0.043513 	4941 	0.043158
41.19 	0.044219 	4930 	0.043506
41.23 	0.042519 	4939 	0.041807
41.27 	0.042588 	4931 	0.042113
41.31 	0.038719 	4933 	0.038481
41.35 	0.040300 	4938 	0.039707
41.39 	0.038516 	4933 	0.037566
41.43 	0.039562 	4929 	0.038968
41.47 	0.037759 	4926 	0.037521
41.51 	0.043117 	4940 	0.042880
41.55 	0.039108 	4935 	0.038871
41.59 	0.041760 	4933 	0.041403
41.63 	0.040705 	4938 	0.040092
41.67 	0.039069 	4940 	0.038595
41.71 	0.044994 	4934 	0.044163
41.75 	0.043619 	4929 	0.042906
41.79 	0.040858 	4944 	0.040147
41.83 	0.037338 	4928 	0.036843
41.87 	0.045593 	4935 	0.045118
41.91 	0.036062 	4936 	0.035706
41.95 	0.038937 	4931 	0.038225
41.99 	0.041182 	4905 	0.040944
42.03 	0.039684 	4939 	0.038617
42.07 	0.039295 	4937 	0.038821
42.11 	0.034580 	4945 	0.034462
42.15 	0.039895 	4938 	0.039420
42.19 	0.038712 	4908 	0.037877
42.23 	0.040270 	4892 	0.040030
42.27 	0.039188 	4874 	0.038707
42.31 	0.036663 	4855 	0.036161
42.35 	0.039066 	4838 	0.038702
42.39 	0.038718 	4804 	0.037986
42.43 	0.040067 	4792 	0.039578
42.47 	0.040084 	4765 	0.039715
42.51 	0.038583 	4743 	0.038460
42.55 	0.037596 	4708 	0.037471
42.59 	0.032354 	4729 	0.032106
42.63 	0.036313 	4709 	0.035547
42.67 	0.039069 	4684 	0.038819
42.71 	0.036886 	4663 	0.036635
42.75 	0.033355 	4617 	0.032847
42.79 	0.039939 	4582 	0.039683
42.83 	0.040564 	4536 	0.040177
42.87 	0.038675 	4499 	0.038154
42.91 	0.037926 	4456 	0.036875
42.95 	0.036005 	4416 	0.035475
42.99 	0.034208 	4385 	0.034074
43.03 	0.038080 	4333 	0.037269
43.07 	0.039106 	4296 	0.038697
43.11 	0.038778 	4255 	0.038503
43.15 	0.043272 	4206 	0.043132
43.19 	0.044826 	4194 	0.044267
43.23 	0.039239 	4154 	0.039098
43.27 	0.037515 	4105 	0.037230
43.31 	0.036283 	4079 	0.035853
43.35 	0.039683 	4032 	0.039683
43.39 	0.034983 	4002 	0.034690
43.43 	0.036111 	3960 	0.035371
43.47 	0.034430 	3921 	0.034281
43.51 	0.046944 	3877 	0.046792
43.55 	0.038124 	2964 	0.037531
43.59 	0.036655 	1746 	0.036655
43.63 	0.028971 	1001 	0.028971
43.67 	0.033865 	502 	0.033865
43.71 	0.050209 	239 	0.047758
43.75 	0.000000 	16 	0.000000