File: Example_Data/25SC_s1_0009.003.dat
#F C:\frames\spec\25SC_s1_0009.003
#C title =s:9 frm:3 25SC_s1
#C wavelength =0.15406

#S 1  fr_average C:\frames\spec\25SC_s1_0009.003 C:\win32app\speccom\mask.axs chi 0 180 0 360 0.02
#C 2 theta =0.000000 to 180 deg
#C   q   =0.000000 to 81.568 nm^-1
#C  chi  =0.000000 to 360 deg
#C collumns:
#C  1 position (2theta or chi in degrees)
#C  2 average intensity (sum of all counts in the region divided with number of pixels)
#C  3 Number of pixels in region)
#C  4 error (sum of sqrt(intensity) for all pixels divided by number)
#N 4
#L TTh  Int  N_pix  Err
32.99 	0.049180 	61 	0.049180
33.03 	0.069734 	1391 	0.067207
33.07 	0.062439 	2050 	0.061296
33.11 	0.077162 	2579 	0.075345
33.15 	0.058019 	2999 	0.057629
33.19 	0.059545 	3342 	0.058494
33.23 	0.054215 	3523 	0.053716
33.27 	0.053444 	3630 	0.051830
33.31 	0.062568 	3660 	0.061448
33.35 	0.062805 	3694 	0.061219
33.39 	0.062751 	3729 	0.061312
33.43 	0.064876 	3761 	0.064253
33.47 	0.063454 	3798 	0.062992
33.51 	0.066055 	3815 	0.064980
33.55 	0.062972 	3843 	0.061600
33.59 	0.062887 	3880 	0.061981
33.63 	0.063281 	3919 	0.062086
33.67 	0.062468 	3954 	0.061135
33.71 	0.066415 	3975 	0.065384
33.75 	0.060765 	3999 	0.059593
33.79 	0.055432 	4041 	0.054562
33.83 	0.060000 	4050 	0.058698
33.87 	0.060326 	4111 	0.059613
33.91 	0.060255 	4149 	0.059408
33.95 	0.056924 	4181 	0.055663
33.99 	0.056190 	4200 	0.055354
34.03 	0.054665 	4244 	0.054251
34.07 	0.063027 	4268 	0.060968
34.11 	0.067411 	4302 	0.066049
34.15 	0.061879 	4331 	0.061338
34.19 	0.058230 	4362 	0.057290
34.23 	0.051901 	4393 	0.051101
34.27 	0.055857 	4422 	0.055062
34.31 	0.059892 	4458 	0.058447
34.35 	0.054416 	4484 	0.053240
34.39 	0.056864 	4502 	0.055281
34.43 	0.061247 	4539 	0.059956
34.47 	0.059451 	4592 	0.058176
34.51 	0.061007 	4606 	0.060096
34.55 	0.060090 	4643 	0.059081
34.59 	0.057540 	4675 	0.055891
34.63 	0.051168 	4710 	0.050670
34.67 	0.057161 	4741 	0.056172
34.71 	0.056861 	4766 	0.056124
34.75 	0.058652 	4808 	0.057556
34.79 	0.056799 	4824 	0.055706
34.83 	0.058618 	4862 	0.057654
34.87 	0.064708 	4868 	0.063866
34.91 	0.061041 	4882 	0.059681
34.95 	0.064826 	4890 	0.063508
34.99 	0.060241 	4897 	0.059164
35.03 	0.061703 	4943 	0.060637
35.07 	0.064575 	4940 	0.063508
35.11 	0.060441 	4947 	0.059119
35.15 	0.060766 	4937 	0.060172
35.19 	0.059288 	4942 	0.058695
35.23 	0.057027 	4945 	0.056672
35.27 	0.066087 	4948 	0.065022
35.31 	0.061626 	4933 	0.060557
35.35 	0.056455 	4942 	0.055507
35.39 	0.055207 	4945 	0.053786
35.43 	0.058382 	4933 	0.057789
35.47 	0.060028 	4931 	0.058702
35.51 	0.055420 	4926 	0.054588
35.55 	0.060870 	4945 	0.059567
35.59 	0.062083 	4945 	0.061017
35.63 	0.057657 	4943 	0.056808
35.67 	0.058883 	4942 	0.058172
35.71 	0.063399 	4937 	0.061936
35.75 	0.063476 	4931 	0.062288
35.79 	0.061638 	4932 	0.060451
35.83 	0.060655 	4946 	0.059352
35.87 	0.057688 	4923 	0.057212
35.91 	0.067587 	4927 	0.066160
35.95 	0.060809 	4917 	0.059975
35.99 	0.055072 	4939 	0.054479
36.03 	0.060085 	4943 	0.058999
36.07 	0.053047 	4939 	0.052217
36.11 	0.054981 	4929 	0.054387
36.15 	0.061956 	4939 	0.060770
36.19 	0.064575 	4940 	0.063508
36.23 	0.061601 	4935 	0.059820
36.27 	0.058477 	4925 	0.057526
36.31 	0.060065 	4928 	0.058995
36.35 	0.062690 	4929 	0.061858
36.39 	0.061370 	4921 	0.059584
36.43 	0.056412 	4928 	0.054729
36.47 	0.055105 	4936 	0.054393
36.51 	0.055139 	4933 	0.054051
36.55 	0.054191 	4927 	0.053478
36.59 	0.052845 	4939 	0.052726
36.63 	0.056784 	4931 	0.055932
36.67 	0.060041 	4930 	0.058852
36.71 	0.062995 	4921 	0.060803
36.75 	0.051982 	4944 	0.051271
36.79 	0.065840 	4921 	0.065007
36.83 	0.052899 	4915 	0.052542
36.87 	0.052387 	4944 	0.052031
36.91 	0.059300 	4941 	0.058470
36.95 	0.051085 	4933 	0.050372
36.99 	0.060993 	4935 	0.060399
37.03 	0.057474 	4924 	0.056165
37.07 	0.052280 	4935 	0.051211
37.11 	0.052482 	4935 	0.050820
37.15 	0.052557 	4909 	0.052079
37.19 	0.054213 	4925 	0.053737
37.23 	0.056730 	4918 	0.056016
37.27 	0.052105 	4894 	0.051746
37.31 	0.060993 	4935 	0.059925
37.35 	0.057716 	4938 	0.056885
37.39 	0.053133 	4931 	0.051807
37.43 	0.055961 	4932 	0.055248
37.47 	0.060661 	4929 	0.059354
37.51 	0.056963 	4933 	0.055875
37.55 	0.054767 	4930 	0.054173
37.59 	0.054527 	4915 	0.053454
37.63 	0.055296 	4919 	0.054343
37.67 	0.046697 	4904 	0.045741
37.71 	0.055184 	4929 	0.054471
37.75 	0.053846 	4940 	0.052779
37.79 	0.046653 	4930 	0.046158
37.83 	0.052236 	4920 	0.051760
37.87 	0.050618 	4939 	0.050025
37.91 	0.054767 	4930 	0.053579
37.95 	0.054460 	4921 	0.053865
37.99 	0.056393 	4912 	0.055319
38.03 	0.057038 	4909 	0.056561
38.07 	0.053371 	4909 	0.052297
38.11 	0.058967 	4935 	0.057542
38.15 	0.052867 	4918 	0.051656
38.19 	0.056389 	4930 	0.055795
38.23 	0.059538 	4938 	0.058471
38.27 	0.049290 	4930 	0.048815
38.31 	0.053176 	4927 	0.052582
38.35 	0.060471 	4928 	0.059401
38.39 	0.065390 	4909 	0.064913
38.43 	0.056347 	4916 	0.055632
38.47 	0.064602 	4907 	0.063885
38.51 	0.062247 	4932 	0.060564
38.55 	0.063412 	4936 	0.062087
38.59 	0.058286 	4924 	0.057215
38.63 	0.061332 	4924 	0.060123
38.67 	0.061981 	4937 	0.060083
38.71 	0.051990 	4924 	0.051395
38.75 	0.053379 	4927 	0.052309
38.79 	0.055533 	4934 	0.054821
38.83 	0.052856 	4919 	0.052023
38.87 	0.051924 	4911 	0.050851
38.91 	0.056496 	4903 	0.055062
38.95 	0.050427 	4918 	0.049712
38.99 	0.049423 	4937 	0.049067
39.03 	0.050466 	4934 	0.049398
39.07 	0.056255 	4924 	0.055422
39.11 	0.051916 	4931 	0.051441
39.15 	0.047406 	4915 	0.046572
39.19 	0.049420 	4917 	0.048706
39.23 	0.048325 	4925 	0.047373
39.27 	0.046029 	4910 	0.045074
39.31 	0.046274 	4884 	0.045674
39.35 	0.050051 	4935 	0.049220
39.39 	0.043822 	4929 	0.043109
39.43 	0.054328 	4933 	0.053378
39.47 	0.053626 	4923 	0.052674
39.51 	0.049553 	4924 	0.049196
39.55 	0.044928 	4919 	0.044213
39.59 	0.054560 	4912 	0.054083
39.63 	0.049777 	4922 	0.049062
39.67 	0.047222 	4913 	0.046864
39.71 	0.049438 	4895 	0.048481
39.75 	0.044846 	4928 	0.044489
39.79 	0.051157 	4926 	0.050563
39.83 	0.049858 	4934 	0.049502
39.87 	0.047716 	4925 	0.047121
39.91 	0.049573 	4922 	0.048859
39.95 	0.048220 	4915 	0.047862
39.99 	0.044809 	4932 	0.043958
40.03 	0.054586 	4928 	0.053397
40.07 	0.048751 	4923 	0.048632
40.11 	0.053906 	4916 	0.052714
40.15 	0.046611 	4913 	0.046373
40.19 	0.048691 	4929 	0.048078
40.23 	0.052109 	4932 	0.051396
40.27 	0.047802 	4937 	0.047090
40.31 	0.044948 	4939 	0.044118
40.35 	0.043098 	4919 	0.042741
40.39 	0.042385 	4931 	0.041910
40.43 	0.044291 	4922 	0.044053
40.47 	0.044327 	4918 	0.043970
40.51 	0.046526 	4922 	0.045931
40.55 	0.046862 	4908 	0.046743
40.59 	0.043144 	4937 	0.042550
40.63 	0.049087 	4930 	0.048612
40.67 	0.041768 	4932 	0.041412
40.71 	0.042376 	4932 	0.042258
40.75 	0.043805 	4931 	0.043329
40.79 	0.041633 	4924 	0.041276
40.83 	0.041193 	4928 	0.041074
40.87 	0.048498 	4928 	0.047785
40.91 	0.047938 	4923 	0.046848
40.95 	0.043151 	4913 	0.042435
40.99 	0.048538 	4924 	0.048538
41.03 	0.041182 	4905 	0.040824
41.07 	0.054970 	4930 	0.053148
41.11 	0.041743 	4935 	0.041505
41.15 	0.049180 	4941 	0.048113
41.19 	0.047870 	4930 	0.047038
41.23 	0.049403 	4939 	0.049047
41.27 	0.045224 	4931 	0.044274
41.31 	0.048449 	4933 	0.047618
41.35 	0.044147 	4938 	0.043317
41.39 	0.047841 	4933 	0.047129
41.43 	0.048083 	4929 	0.047607
41.47 	0.042834 	4926 	0.042120
41.51 	0.050810 	4940 	0.049861
41.55 	0.046201 	4935 	0.045251
41.59 	0.042976 	4933 	0.042382
41.63 	0.046983 	4938 	0.046389
41.67 	0.043927 	4940 	0.043097
41.71 	0.042359 	4934 	0.042003
41.75 	0.037533 	4929 	0.036939
41.79 	0.044903 	4944 	0.044192
41.83 	0.045049 	4928 	0.044692
41.87 	0.044377 	4935 	0.043783
41.91 	0.045178 	4936 	0.044585
41.95 	0.042993 	4931 	0.042399
41.99 	0.037513 	4905 	0.036916
42.03 	0.044341 	4939 	0.043748
42.07 	0.047397 	4937 	0.046804
42.11 	0.049141 	4945 	0.047956
42.15 	0.047388 	4938 	0.046320
42.19 	0.044010 	4908 	0.043174
42.23 	0.045585 	4892 	0.044866
42.27 	0.040419 	4874 	0.039457
42.31 	0.041813 	4855 	0.040968
42.35 	0.044233 	4838 	0.043628
42.39 	0.047044 	4804 	0.046556
42.43 	0.045284 	4792 	0.044428
42.47 	0.046380 	4765 	0.045642
42.51 	0.039005 	4743 	0.038511
42.55 	0.045455 	4708 	0.044832
42.59 	0.047790 	4729 	0.047666
42.63 	0.042260 	4709 	0.042011
42.67 	0.043339 	4684 	0.043089
42.71 	0.040746 	4663 	0.040495
42.75 	0.048733 	4617 	0.048225
42.79 	0.042776 	4582 	0.042648
42.83 	0.037698 	4536 	0.037161
42.87 	0.040231 	4499 	0.039841
42.91 	0.042864 	4456 	0.042469
42.95 	0.044611 	4416 	0.043240
42.99 	0.047206 	4385 	0.046806
43.03 	0.043388 	4333 	0.042982
43.07 	0.041201 	4296 	0.040928
43.11 	0.037133 	4255 	0.036720
43.15 	0.039705 	4206 	0.039427
43.19 	0.046018 	4194 	0.045320
43.23 	0.034906 	4154 	0.034906
43.27 	0.038490 	4105 	0.038204
43.31 	0.038980 	4079 	0.038693
43.35 	0.046131 	4032 	0.045840
43.39 	0.044978 	4002 	0.044392
43.43 	0.044697 	3960 	0.044253
43.47 	0.041316 	3921 	0.040868
43.51 	0.037658 	3877 	0.036903
43.55 	0.041835 	2964 	0.041638
43.59 	0.042383 	1746 	0.042047
43.63 	0.033966 	1001 	0.033966
43.67 	0.039841 	502 	0.038674
43.71 	0.037657 	239 	0.037657
43.75 	0.000000 	16 	0.000000