File: Example_Data/25SC_s1_0036.004.dat
#F C:\frames\spec\25SC_s1_0036.004
#C title =s:36 frm:4 25SC_s1
#C wavelength =0.15406

#S 1  fr_average C:\frames\spec\25SC_s1_0036.004 C:\win32app\speccom\mask.axs chi 0 180 0 360 0.02
#C 2 theta =0.000000 to 180 deg
#C   q   =0.000000 to 81.568 nm^-1
#C  chi  =0.000000 to 360 deg
#C collumns:
#C  1 position (2theta or chi in degrees)
#C  2 average intensity (sum of all counts in the region divided with number of pixels)
#C  3 Number of pixels in region)
#C  4 error (sum of sqrt(intensity) for all pixels divided by number)
#N 4
#L TTh  Int  N_pix  Err
32.99 	0.114754 	61 	0.105151
33.03 	0.064702 	1391 	0.063859
33.07 	0.052683 	2050 	0.052397
33.11 	0.066305 	2579 	0.065850
33.15 	0.059020 	2999 	0.057425
33.19 	0.057451 	3342 	0.056925
33.23 	0.053080 	3523 	0.052082
33.27 	0.054821 	3630 	0.053691
33.31 	0.056557 	3660 	0.055757
33.35 	0.059285 	3694 	0.058334
33.39 	0.059802 	3729 	0.059016
33.43 	0.062217 	3761 	0.061283
33.47 	0.055556 	3798 	0.054322
33.51 	0.054784 	3815 	0.054170
33.55 	0.054905 	3843 	0.052898
33.59 	0.062371 	3880 	0.061767
33.63 	0.054095 	3919 	0.053348
33.67 	0.054375 	3954 	0.053314
33.71 	0.059119 	3975 	0.058383
33.75 	0.057264 	3999 	0.055799
33.79 	0.060629 	4041 	0.060339
33.83 	0.058272 	4050 	0.057259
33.87 	0.051082 	4111 	0.050655
33.91 	0.053025 	4149 	0.052601
33.95 	0.058359 	4181 	0.057496
33.99 	0.057857 	4200 	0.056741
34.03 	0.058671 	4244 	0.057843
34.07 	0.058575 	4268 	0.057455
34.11 	0.057415 	4302 	0.056598
34.15 	0.061187 	4331 	0.060240
34.19 	0.059835 	4362 	0.059163
34.23 	0.055088 	4393 	0.054554
34.27 	0.056762 	4422 	0.055834
34.31 	0.055630 	4458 	0.054558
34.35 	0.050847 	4484 	0.050456
34.39 	0.057086 	4502 	0.056435
34.43 	0.057722 	4539 	0.056668
34.47 	0.064242 	4592 	0.062287
34.51 	0.061659 	4606 	0.061023
34.55 	0.060521 	4643 	0.059133
34.59 	0.048128 	4675 	0.047752
34.63 	0.057749 	4710 	0.057128
34.67 	0.057583 	4741 	0.056471
34.71 	0.053504 	4766 	0.052275
34.75 	0.051789 	4808 	0.050692
34.79 	0.055141 	4824 	0.053684
34.83 	0.060880 	4862 	0.060037
34.87 	0.059573 	4868 	0.058229
34.91 	0.051618 	4882 	0.050538
34.95 	0.050716 	4890 	0.049997
34.99 	0.056157 	4897 	0.055439
35.03 	0.054016 	4943 	0.053068
35.07 	0.056275 	4940 	0.055564
35.11 	0.059228 	4947 	0.058024
35.15 	0.056512 	4937 	0.056037
35.19 	0.057062 	4942 	0.055402
35.23 	0.058241 	4945 	0.057175
35.27 	0.059418 	4948 	0.057593
35.31 	0.059193 	4933 	0.058006
35.35 	0.056657 	4942 	0.055946
35.39 	0.060465 	4945 	0.058570
35.43 	0.060612 	4933 	0.059543
35.47 	0.059420 	4931 	0.058094
35.51 	0.060698 	4926 	0.059628
35.55 	0.054803 	4945 	0.053263
35.59 	0.053994 	4945 	0.053165
35.63 	0.057253 	4943 	0.056186
35.67 	0.056455 	4942 	0.055862
35.71 	0.060158 	4937 	0.059209
35.75 	0.053944 	4931 	0.053469
35.79 	0.058597 	4932 	0.057647
35.83 	0.061464 	4946 	0.060279
35.87 	0.059110 	4923 	0.058039
35.91 	0.054191 	4927 	0.053835
35.95 	0.057149 	4917 	0.056434
35.99 	0.053452 	4939 	0.052978
36.03 	0.054420 	4943 	0.053709
36.07 	0.060336 	4939 	0.059269
36.11 	0.050720 	4929 	0.049769
36.15 	0.058311 	4939 	0.057363
36.19 	0.052834 	4940 	0.052004
36.23 	0.052077 	4935 	0.050633
36.27 	0.055025 	4925 	0.054787
36.31 	0.059659 	4928 	0.058827
36.35 	0.060459 	4929 	0.059864
36.39 	0.052022 	4921 	0.051189
36.43 	0.055195 	4928 	0.054363
36.47 	0.054092 	4936 	0.053143
36.51 	0.057369 	4933 	0.056181
36.55 	0.050538 	4927 	0.049706
36.59 	0.059324 	4939 	0.058256
36.63 	0.055972 	4931 	0.054784
36.67 	0.050507 	4930 	0.049675
36.71 	0.052022 	4921 	0.051070
36.75 	0.055623 	4944 	0.055149
36.79 	0.053241 	4921 	0.052289
36.83 	0.053917 	4915 	0.052844
36.87 	0.059668 	4944 	0.059313
36.91 	0.060919 	4941 	0.059457
36.95 	0.057571 	4933 	0.056859
36.99 	0.055117 	4935 	0.053316
37.03 	0.055646 	4924 	0.054932
37.07 	0.052685 	4935 	0.051597
37.11 	0.049443 	4935 	0.048849
37.15 	0.054390 	4909 	0.053316
37.19 	0.050152 	4925 	0.049181
37.23 	0.054494 	4918 	0.054017
37.27 	0.058235 	4894 	0.057157
37.31 	0.056535 	4935 	0.054972
37.35 	0.055488 	4938 	0.054539
37.39 	0.051714 	4931 	0.051001
37.43 	0.049270 	4932 	0.048795
37.47 	0.050314 	4929 	0.049582
37.51 	0.052504 	4933 	0.051059
37.55 	0.054158 	4930 	0.053307
37.59 	0.055748 	4915 	0.054556
37.63 	0.051027 	4919 	0.049836
37.67 	0.057096 	4904 	0.056499
37.71 	0.059444 	4929 	0.058256
37.75 	0.054251 	4940 	0.053777
37.79 	0.054970 	4930 	0.054257
37.83 	0.051016 	4920 	0.049707
37.87 	0.057906 	4939 	0.056720
37.91 	0.051927 	4930 	0.050976
37.95 	0.051616 	4921 	0.050901
37.99 	0.050692 	4912 	0.049977
38.03 	0.057242 	4909 	0.055571
38.07 	0.051945 	4909 	0.051110
38.11 	0.053495 	4935 	0.052427
38.15 	0.061000 	4918 	0.059809
38.19 	0.056998 	4930 	0.056028
38.23 	0.058121 	4938 	0.057528
38.27 	0.062880 	4930 	0.061692
38.31 	0.068602 	4927 	0.066799
38.35 	0.067370 	4928 	0.066043
38.39 	0.071909 	4909 	0.070219
38.43 	0.068959 	4916 	0.067032
38.47 	0.065213 	4907 	0.064377
38.51 	0.062652 	4932 	0.061821
38.55 	0.063817 	4936 	0.063223
38.59 	0.052396 	4924 	0.052040
38.63 	0.053412 	4924 	0.052936
38.67 	0.050435 	4937 	0.049823
38.71 	0.059911 	4924 	0.059197
38.75 	0.049929 	4927 	0.049334
38.79 	0.054520 	4934 	0.053926
38.83 	0.054076 	4919 	0.052647
38.87 	0.055386 	4911 	0.055028
38.91 	0.047522 	4903 	0.047044
38.95 	0.055714 	4918 	0.054999
38.99 	0.059550 	4937 	0.058364
39.03 	0.056141 	4934 	0.055073
39.07 	0.055646 	4924 	0.055170
39.11 	0.051511 	4931 	0.050798
39.15 	0.056358 	4915 	0.055147
39.19 	0.050437 	4917 	0.049961
39.23 	0.055431 	4925 	0.054361
39.27 	0.049898 	4910 	0.048824
39.31 	0.052211 	4884 	0.051372
39.35 	0.047011 	4935 	0.046418
39.39 	0.057821 	4929 	0.056633
39.43 	0.053923 	4933 	0.053210
39.47 	0.059517 	4923 	0.058922
39.51 	0.060114 	4924 	0.059519
39.55 	0.058955 	4919 	0.058241
39.59 	0.059650 	4912 	0.059173
39.63 	0.051402 	4922 	0.050926
39.67 	0.054346 	4913 	0.053630
39.71 	0.054545 	4895 	0.053468
39.75 	0.059659 	4928 	0.058114
39.79 	0.049330 	4926 	0.049092
39.83 	0.054520 	4934 	0.053570
39.87 	0.053198 	4925 	0.052365
39.91 	0.053027 	4922 	0.052313
39.95 	0.047406 	4915 	0.046452
39.99 	0.053325 	4932 	0.052138
40.03 	0.051339 	4928 	0.050745
40.07 	0.050173 	4923 	0.049221
40.11 	0.052685 	4916 	0.051970
40.15 	0.055567 	4913 	0.054593
40.19 	0.053155 	4929 	0.052204
40.23 	0.053528 	4932 	0.052697
40.27 	0.045169 	4937 	0.044339
40.31 	0.050010 	4939 	0.049417
40.35 	0.052246 	4919 	0.051175
40.39 	0.053336 	4931 	0.052742
40.43 	0.054043 	4922 	0.053329
40.47 	0.050834 	4918 	0.049881
40.51 	0.057497 	4922 	0.057259
40.55 	0.049918 	4908 	0.049441
40.59 	0.051853 	4937 	0.050667
40.63 	0.053955 	4930 	0.053124
40.67 	0.051095 	4932 	0.050620
40.71 	0.056772 	4932 	0.055941
40.75 	0.049280 	4931 	0.048686
40.79 	0.051584 	4924 	0.050870
40.83 	0.052354 	4928 	0.051997
40.87 	0.055398 	4928 	0.054090
40.91 	0.047735 	4923 	0.046645
40.95 	0.046204 	4913 	0.045369
40.99 	0.053412 	4924 	0.052460
41.03 	0.054230 	4905 	0.053633
41.07 	0.052738 	4930 	0.051788
41.11 	0.049443 	4935 	0.048731
41.15 	0.052419 	4941 	0.051352
41.19 	0.050507 	4930 	0.050032
41.23 	0.043734 	4939 	0.043141
41.27 	0.049888 	4931 	0.049176
41.31 	0.048652 	4933 	0.048058
41.35 	0.051640 	4938 	0.050810
41.39 	0.050679 	4933 	0.050323
41.43 	0.048691 	4929 	0.047978
41.47 	0.047503 	4926 	0.047027
41.51 	0.046154 	4940 	0.045561
41.55 	0.051469 	4935 	0.050638
41.59 	0.049463 	4933 	0.048632
41.63 	0.050020 	4938 	0.049427
41.67 	0.043927 	4940 	0.043453
41.71 	0.046818 	4934 	0.045987
41.75 	0.050112 	4929 	0.049755
41.79 	0.050769 	4944 	0.050176
41.83 	0.044643 	4928 	0.044167
41.87 	0.049240 	4935 	0.048647
41.91 	0.047002 	4936 	0.045934
41.95 	0.055972 	4931 	0.054784
41.99 	0.045872 	4905 	0.045513
42.03 	0.039887 	4939 	0.039412
42.07 	0.047600 	4937 	0.046512
42.11 	0.048332 	4945 	0.047502
42.15 	0.046780 	4938 	0.045950
42.19 	0.041565 	4908 	0.040849
42.23 	0.048651 	4892 	0.047913
42.27 	0.047189 	4874 	0.046708
42.31 	0.047786 	4855 	0.046700
42.35 	0.049194 	4838 	0.048831
42.39 	0.041216 	4804 	0.040342
42.43 	0.043614 	4792 	0.043003
42.47 	0.046800 	4765 	0.045939
42.51 	0.049336 	4743 	0.048471
42.55 	0.044817 	4708 	0.044195
42.59 	0.045464 	4729 	0.045093
42.63 	0.045870 	4709 	0.045372
42.67 	0.048463 	4684 	0.048213
42.71 	0.045035 	4663 	0.044407
42.75 	0.050466 	4617 	0.049831
42.79 	0.049105 	4582 	0.048210
42.83 	0.042769 	4536 	0.042640
42.87 	0.045343 	4499 	0.044823
42.91 	0.046679 	4456 	0.046021
42.95 	0.048007 	4416 	0.047190
42.99 	0.050399 	4385 	0.049063
43.03 	0.047311 	4333 	0.046500
43.07 	0.045857 	4296 	0.045720
43.11 	0.050294 	4255 	0.049330
43.15 	0.041845 	4206 	0.041566
43.19 	0.049356 	4194 	0.048099
43.23 	0.037795 	4154 	0.037513
43.27 	0.047016 	4105 	0.046588
43.31 	0.042167 	4079 	0.041736
43.35 	0.041171 	4032 	0.040880
43.39 	0.045977 	4002 	0.045245
43.43 	0.044949 	3960 	0.044062
43.47 	0.046417 	3921 	0.045520
43.51 	0.040495 	3877 	0.040042
43.55 	0.046221 	2964 	0.045431
43.59 	0.049255 	1746 	0.048194
43.63 	0.047952 	1001 	0.046196
43.67 	0.055777 	502 	0.052276
43.71 	0.046025 	239 	0.046025
43.75 	0.000000 	16 	0.000000