File: Example_Data/25SC_s1_0022.001.dat
#F C:\frames\spec\25SC_s1_0022.001
#C title =s:22 frm:1 25SC_s1
#C wavelength =0.15406

#S 1  fr_average C:\frames\spec\25SC_s1_0022.001 C:\win32app\speccom\mask.axs chi 0 180 0 360 0.02
#C 2 theta =0.000000 to 180 deg
#C   q   =0.000000 to 81.568 nm^-1
#C  chi  =0.000000 to 360 deg
#C collumns:
#C  1 position (2theta or chi in degrees)
#C  2 average intensity (sum of all counts in the region divided with number of pixels)
#C  3 Number of pixels in region)
#C  4 error (sum of sqrt(intensity) for all pixels divided by number)
#N 4
#L TTh  Int  N_pix  Err
32.99 	0.000000 	61 	0.000000
33.03 	0.060388 	1391 	0.058283
33.07 	0.051220 	2050 	0.050362
33.11 	0.060876 	2579 	0.059968
33.15 	0.060687 	2999 	0.059124
33.19 	0.061939 	3342 	0.060887
33.23 	0.065285 	3523 	0.063456
33.27 	0.056749 	3630 	0.056588
33.31 	0.057650 	3660 	0.056530
33.35 	0.061451 	3694 	0.060341
33.39 	0.059533 	3729 	0.058434
33.43 	0.065940 	3761 	0.064850
33.47 	0.063191 	3798 	0.062266
33.51 	0.063696 	3815 	0.062928
33.55 	0.058808 	3843 	0.057741
33.59 	0.051804 	3880 	0.050747
33.63 	0.063281 	3919 	0.062833
33.67 	0.057663 	3954 	0.056626
33.71 	0.059371 	3975 	0.058487
33.75 	0.058265 	3999 	0.056800
33.79 	0.056174 	4041 	0.055739
33.83 	0.058765 	4050 	0.057874
33.87 	0.059596 	4111 	0.058290
33.91 	0.057122 	4149 	0.055993
33.95 	0.062904 	4181 	0.061503
33.99 	0.058571 	4200 	0.057154
34.03 	0.053723 	4244 	0.053033
34.07 	0.057170 	4268 	0.055660
34.11 	0.059042 	4302 	0.057931
34.15 	0.059801 	4331 	0.058427
34.19 	0.055479 	4362 	0.054136
34.23 	0.056681 	4393 	0.056014
34.27 	0.059701 	4422 	0.057979
34.31 	0.054284 	4458 	0.053627
34.35 	0.056646 	4484 	0.055339
34.39 	0.052643 	4502 	0.051732
34.43 	0.060145 	4539 	0.059500
34.47 	0.056620 	4592 	0.055727
34.51 	0.054928 	4606 	0.054038
34.55 	0.059444 	4643 	0.057930
34.59 	0.057968 	4675 	0.057216
34.63 	0.057749 	4710 	0.057003
34.67 	0.057794 	4741 	0.057052
34.71 	0.057491 	4766 	0.056384
34.75 	0.054700 	4808 	0.053604
34.79 	0.057629 	4824 	0.056414
34.83 	0.055738 	4862 	0.054413
34.87 	0.053410 	4868 	0.052568
34.91 	0.060016 	4882 	0.059296
34.95 	0.053988 	4890 	0.053149
34.99 	0.059016 	4897 	0.057939
35.03 	0.060287 	4943 	0.059102
35.07 	0.057692 	4940 	0.056744
35.11 	0.058217 	4947 	0.057033
35.15 	0.052056 	4937 	0.050988
35.19 	0.049170 	4942 	0.047985
35.23 	0.055612 	4945 	0.055019
35.27 	0.055376 	4948 	0.054666
35.31 	0.059599 	4933 	0.058035
35.35 	0.057669 	4942 	0.056839
35.39 	0.060870 	4945 	0.060277
35.43 	0.056963 	4933 	0.056350
35.47 	0.056581 	4931 	0.055987
35.51 	0.057653 	4926 	0.056464
35.55 	0.059454 	4945 	0.057875
35.59 	0.053387 	4945 	0.051847
35.63 	0.054420 	4943 	0.053472
35.67 	0.056050 	4942 	0.054746
35.71 	0.056512 	4937 	0.055425
35.75 	0.053539 	4931 	0.052707
35.79 	0.049676 	4932 	0.048725
35.83 	0.055600 	4946 	0.054397
35.87 	0.057079 	4923 	0.055889
35.91 	0.057845 	4927 	0.057131
35.95 	0.056539 	4917 	0.055943
35.99 	0.054869 	4939 	0.053782
36.03 	0.054825 	4943 	0.053758
36.07 	0.061348 	4939 	0.060044
36.11 	0.064313 	4929 	0.063244
36.15 	0.063576 	4939 	0.063220
36.19 	0.050405 	4940 	0.049575
36.23 	0.054509 	4935 	0.053322
36.27 	0.061726 	4925 	0.060536
36.31 	0.054992 	4928 	0.054398
36.35 	0.051938 	4929 	0.051343
36.39 	0.055477 	4921 	0.054148
36.43 	0.056615 	4928 	0.055427
36.47 	0.058347 	4936 	0.057378
36.51 	0.060409 	4933 	0.059934
36.55 	0.062107 	4927 	0.061136
36.59 	0.062563 	4939 	0.061614
36.63 	0.052930 	4931 	0.052574
36.67 	0.060446 	4930 	0.059496
36.71 	0.063808 	4921 	0.062618
36.75 	0.058455 	4944 	0.057744
36.79 	0.061370 	4921 	0.060774
36.83 	0.055748 	4915 	0.055152
36.87 	0.060073 	4944 	0.058651
36.91 	0.050395 	4941 	0.049328
36.95 	0.057166 	4933 	0.056335
36.99 	0.052482 	4935 	0.051177
37.03 	0.062145 	4924 	0.061669
37.07 	0.059980 	4935 	0.059386
37.11 	0.057548 	4935 	0.056717
37.15 	0.058668 	4909 	0.057336
37.19 	0.058071 	4925 	0.056724
37.23 	0.052664 	4918 	0.051711
37.27 	0.057009 	4894 	0.055931
37.31 	0.058156 	4935 	0.057325
37.35 	0.055691 	4938 	0.054504
37.39 	0.056784 	4931 	0.055596
37.43 	0.057989 	4932 	0.057157
37.47 	0.053763 	4929 	0.052555
37.51 	0.050882 	4933 	0.050526
37.55 	0.058215 	4930 	0.057621
37.59 	0.058393 	4915 	0.057201
37.63 	0.055702 	4919 	0.055107
37.67 	0.050979 	4904 	0.050023
37.71 	0.051329 	4929 	0.050972
37.75 	0.052834 	4940 	0.051885
37.79 	0.054970 	4930 	0.054019
37.83 	0.051016 	4920 	0.050778
37.87 	0.054060 	4939 	0.053467
37.91 	0.051724 	4930 	0.050992
37.95 	0.055477 	4921 	0.055000
37.99 	0.052932 	4912 	0.051739
38.03 	0.053982 	4909 	0.053505
38.07 	0.054594 	4909 	0.053878
38.11 	0.056130 	4935 	0.055299
38.15 	0.060594 	4918 	0.058688
38.19 	0.064300 	4930 	0.063350
38.23 	0.054273 	4938 	0.053186
38.27 	0.060243 	4930 	0.059530
38.31 	0.063325 	4927 	0.061779
38.35 	0.064529 	4928 	0.063697
38.39 	0.066816 	4909 	0.065265
38.43 	0.064280 	4916 	0.062969
38.47 	0.071938 	4907 	0.070744
38.51 	0.069749 	4932 	0.068561
38.55 	0.075770 	4936 	0.074227
38.59 	0.067831 	4924 	0.066403
38.63 	0.072705 	4924 	0.071396
38.67 	0.074134 	4937 	0.073304
38.71 	0.072705 	4924 	0.071278
38.75 	0.067993 	4927 	0.066566
38.79 	0.061208 	4934 	0.059427
38.83 	0.062004 	4919 	0.061052
38.87 	0.053757 	4911 	0.052564
38.91 	0.053029 	4903 	0.052312
38.95 	0.048800 	4918 	0.048205
38.99 	0.049220 	4937 	0.048627
39.03 	0.045197 	4934 	0.045078
39.07 	0.050772 	4924 	0.050534
39.11 	0.048874 	4931 	0.048280
39.15 	0.046592 	4915 	0.046115
39.19 	0.045760 	4917 	0.044906
39.23 	0.044873 	4925 	0.044397
39.27 	0.042770 	4910 	0.042054
39.31 	0.053849 	4884 	0.053250
39.35 	0.042351 	4935 	0.041757
39.39 	0.043822 	4929 	0.043109
39.43 	0.046017 	4933 	0.045542
39.47 	0.044079 	4923 	0.043960
39.51 	0.040008 	4924 	0.039294
39.55 	0.044521 	4919 	0.044045
39.59 	0.040513 	4912 	0.040275
39.63 	0.042869 	4922 	0.042750
39.67 	0.044779 	4913 	0.044302
39.71 	0.049234 	4895 	0.048755
39.75 	0.047078 	4928 	0.046107
39.79 	0.044864 	4926 	0.044269
39.83 	0.043373 	4934 	0.042779
39.87 	0.040406 	4925 	0.039692
39.91 	0.046119 	4922 	0.045048
39.95 	0.045371 	4915 	0.044418
39.99 	0.045823 	4932 	0.045111
40.03 	0.040381 	4928 	0.040144
40.07 	0.046313 	4923 	0.046194
40.11 	0.043328 	4916 	0.042593
40.15 	0.048646 	4913 	0.047573
40.19 	0.042402 	4929 	0.041808
40.23 	0.049878 	4932 	0.049166
40.27 	0.041523 	4937 	0.041167
40.31 	0.044948 	4939 	0.044118
40.35 	0.044521 	4919 	0.044045
40.39 	0.043196 	4931 	0.042721
40.43 	0.042056 	4922 	0.041580
40.47 	0.039854 	4918 	0.039615
40.51 	0.041447 	4922 	0.041090
40.55 	0.045232 	4908 	0.045113
40.59 	0.040308 	4937 	0.039715
40.63 	0.042191 	4930 	0.041478
40.67 	0.047648 	4932 	0.046817
40.71 	0.044404 	4932 	0.044166
40.75 	0.042791 	4931 	0.042553
40.79 	0.043664 	4924 	0.042950
40.83 	0.043425 	4928 	0.043188
40.87 	0.047484 	4928 	0.046176
40.91 	0.044891 	4923 	0.044296
40.95 	0.039487 	4913 	0.038772
40.99 	0.047725 	4924 	0.047131
41.03 	0.038328 	4905 	0.037970
41.07 	0.039148 	4930 	0.038910
41.11 	0.042553 	4935 	0.042078
41.15 	0.044728 	4941 	0.044135
41.19 	0.038742 	4930 	0.038148
41.23 	0.043936 	4939 	0.043580
41.27 	0.044210 	4931 	0.043616
41.31 	0.043787 	4933 	0.043312
41.35 	0.047995 	4938 	0.047283
41.39 	0.040543 	4933 	0.039950
41.43 	0.040576 	4929 	0.040220
41.47 	0.044255 	4926 	0.043660
41.51 	0.038462 	4940 	0.038224
41.55 	0.039716 	4935 	0.039242
41.59 	0.041354 	4933 	0.040879
41.63 	0.042932 	4938 	0.041983
41.67 	0.035830 	4940 	0.035356
41.71 	0.036076 	4934 	0.035839
41.75 	0.038547 	4929 	0.038072
41.79 	0.038026 	4944 	0.037414
41.83 	0.035308 	4928 	0.034952
41.87 	0.040527 	4935 	0.040408
41.91 	0.039708 	4936 	0.039115
41.95 	0.035084 	4931 	0.034490
41.99 	0.040571 	4905 	0.039854
42.03 	0.039077 	4939 	0.038721
42.07 	0.038687 	4937 	0.037976
42.11 	0.040647 	4945 	0.040292
42.15 	0.039490 	4938 	0.038778
42.19 	0.042787 	4908 	0.042310
42.23 	0.038430 	4892 	0.037831
42.27 	0.037751 	4874 	0.037751
42.31 	0.037693 	4855 	0.037452
42.35 	0.038652 	4838 	0.038410
42.39 	0.039967 	4804 	0.039601
42.43 	0.037563 	4792 	0.036951
42.47 	0.038615 	4765 	0.038123
42.51 	0.040481 	4743 	0.040234
42.55 	0.034622 	4708 	0.034249
42.59 	0.041869 	4729 	0.041374
42.63 	0.038012 	4709 	0.037764
42.67 	0.035867 	4684 	0.035367
42.71 	0.035599 	4663 	0.035348
42.75 	0.039420 	4617 	0.039039
42.79 	0.035574 	4582 	0.034914
42.83 	0.040344 	4536 	0.039956
42.87 	0.042232 	4499 	0.042101
42.91 	0.035682 	4456 	0.035288
42.95 	0.035326 	4416 	0.035061
42.99 	0.033751 	4385 	0.033351
43.03 	0.031156 	4333 	0.031156
43.07 	0.037709 	4296 	0.037164
43.11 	0.035018 	4255 	0.034467
43.15 	0.034950 	4206 	0.034509
43.19 	0.038150 	4194 	0.037870
43.23 	0.034425 	4154 	0.034143
43.27 	0.037759 	4105 	0.037331
43.31 	0.036529 	4079 	0.036241
43.35 	0.035714 	4032 	0.035569
43.39 	0.033233 	4002 	0.032648
43.43 	0.039646 	3960 	0.039203
43.47 	0.038766 	3921 	0.038317
43.51 	0.038174 	3877 	0.037872
43.55 	0.038799 	2964 	0.038206
43.59 	0.030928 	1746 	0.030592
43.63 	0.032967 	1001 	0.032382
43.67 	0.021912 	502 	0.021912
43.71 	0.020921 	239 	0.020921
43.75 	0.000000 	16 	0.000000