File: Example_Data/25SC_s1_0015.004.dat
#F C:\frames\spec\25SC_s1_0015.004
#C title =s:15 frm:4 25SC_s1
#C wavelength =0.15406

#S 1  fr_average C:\frames\spec\25SC_s1_0015.004 C:\win32app\speccom\mask.axs chi 0 180 0 360 0.02
#C 2 theta =0.000000 to 180 deg
#C   q   =0.000000 to 81.568 nm^-1
#C  chi  =0.000000 to 360 deg
#C collumns:
#C  1 position (2theta or chi in degrees)
#C  2 average intensity (sum of all counts in the region divided with number of pixels)
#C  3 Number of pixels in region)
#C  4 error (sum of sqrt(intensity) for all pixels divided by number)
#N 4
#L TTh  Int  N_pix  Err
32.99 	0.081967 	61 	0.081967
33.03 	0.051761 	1391 	0.051340
33.07 	0.067317 	2050 	0.065888
33.11 	0.059325 	2579 	0.057735
33.15 	0.067022 	2999 	0.065850
33.19 	0.063435 	3342 	0.062208
33.23 	0.057905 	3523 	0.056908
33.27 	0.057576 	3630 	0.056285
33.31 	0.058743 	3660 	0.058103
33.35 	0.058202 	3694 	0.057251
33.39 	0.058729 	3729 	0.057943
33.43 	0.058761 	3761 	0.058294
33.47 	0.061348 	3798 	0.059806
33.51 	0.058453 	3815 	0.057686
33.55 	0.070778 	3843 	0.070626
33.59 	0.062629 	3880 	0.062025
33.63 	0.061240 	3919 	0.059745
33.67 	0.060445 	3954 	0.059236
33.71 	0.059119 	3975 	0.057941
33.75 	0.060765 	3999 	0.058837
33.79 	0.060134 	4041 	0.059264
33.83 	0.063704 	4050 	0.062957
33.87 	0.063002 	4111 	0.061268
33.91 	0.058086 	4149 	0.057239
33.95 	0.056207 	4181 	0.055646
33.99 	0.065238 	4200 	0.063960
34.03 	0.058907 	4244 	0.057941
34.07 	0.063730 	4268 	0.062495
34.11 	0.059740 	4302 	0.059059
34.15 	0.067421 	4331 	0.066474
34.19 	0.057772 	4362 	0.056832
34.23 	0.058730 	4393 	0.058196
34.27 	0.055405 	4422 	0.054345
34.31 	0.056528 	4458 	0.055739
34.35 	0.070473 	4484 	0.069036
34.39 	0.057974 	4502 	0.057063
34.43 	0.053977 	4539 	0.053331
34.47 	0.056185 	4592 	0.055419
34.51 	0.060139 	4606 	0.059122
34.55 	0.058152 	4643 	0.057395
34.59 	0.054332 	4675 	0.052953
34.63 	0.059660 	4710 	0.058769
34.67 	0.056528 	4741 	0.055663
34.71 	0.059169 	4766 	0.057940
34.75 	0.059484 	4808 	0.058753
34.79 	0.070688 	4824 	0.069352
34.83 	0.058001 	4862 	0.057157
34.87 	0.057929 	4868 	0.056846
34.91 	0.069234 	4882 	0.067155
34.95 	0.063190 	4890 	0.062232
34.99 	0.057790 	4897 	0.056455
35.03 	0.059883 	4943 	0.059172
35.07 	0.054858 	4940 	0.053910
35.11 	0.058015 	4947 	0.057304
35.15 	0.058943 	4937 	0.058349
35.19 	0.059085 	4942 	0.057782
35.23 	0.062690 	4945 	0.061387
35.27 	0.063662 	4948 	0.062715
35.31 	0.062842 	4933 	0.062011
35.35 	0.065358 	4942 	0.063936
35.39 	0.058443 	4945 	0.057258
35.43 	0.055747 	4933 	0.055153
35.47 	0.055770 	4931 	0.054938
35.51 	0.058668 	4926 	0.057717
35.55 	0.062690 	4945 	0.061604
35.59 	0.064105 	4945 	0.062565
35.63 	0.063929 	4943 	0.063218
35.67 	0.058681 	4942 	0.057851
35.71 	0.060158 	4937 	0.058715
35.75 	0.062259 	4931 	0.061309
35.79 	0.060422 	4932 	0.059353
35.83 	0.056611 	4946 	0.055664
35.87 	0.064798 	4923 	0.064084
35.91 	0.053785 	4927 	0.052953
35.95 	0.054505 	4917 	0.054028
35.99 	0.059324 	4939 	0.058731
36.03 	0.061097 	4943 	0.060148
36.07 	0.053655 	4939 	0.052449
36.11 	0.059647 	4929 	0.059053
36.15 	0.058919 	4939 	0.057851
36.19 	0.061336 	4940 	0.060506
36.23 	0.057953 	4935 	0.057479
36.27 	0.055431 	4925 	0.054480
36.31 	0.062906 	4928 	0.061579
36.35 	0.056604 	4929 	0.055891
36.39 	0.060354 	4921 	0.059044
36.43 	0.052963 	4928 	0.051774
36.47 	0.057536 	4936 	0.056706
36.51 	0.061829 	4933 	0.060047
36.55 	0.049726 	4927 	0.049488
36.59 	0.055477 	4939 	0.054765
36.63 	0.055161 	4931 	0.053736
36.67 	0.060243 	4930 	0.059630
36.71 	0.053648 	4921 	0.052933
36.75 	0.060680 	4944 	0.059258
36.79 	0.060760 	4921 	0.059808
36.83 	0.063072 	4915 	0.062099
36.87 	0.054409 	4944 	0.053462
36.91 	0.056062 	4941 	0.054639
36.95 	0.057774 	4933 	0.056943
36.99 	0.058359 	4935 	0.057271
37.03 	0.055849 	4924 	0.055016
37.07 	0.056940 	4935 	0.056109
37.11 	0.058967 	4935 	0.057523
37.15 	0.053575 	4909 	0.052859
37.19 	0.058680 	4925 	0.057491
37.23 	0.057544 	4918 	0.056710
37.27 	0.049857 	4894 	0.048899
37.31 	0.057345 	4935 	0.056633
37.35 	0.061361 	4938 	0.060649
37.39 	0.058812 	4931 	0.057980
37.43 	0.057583 	4932 	0.056752
37.47 	0.059038 	4929 	0.057969
37.51 	0.055342 	4933 	0.054273
37.55 	0.054564 	4930 	0.053732
37.59 	0.057579 	4915 	0.056506
37.63 	0.058955 	4919 	0.057407
37.67 	0.050163 	4904 	0.049068
37.71 	0.054372 	4929 	0.053302
37.75 	0.050202 	4940 	0.049135
37.79 	0.058215 	4930 	0.057007
37.83 	0.056504 	4920 	0.056266
37.87 	0.053047 	4939 	0.052691
37.91 	0.059838 	4930 	0.058412
37.95 	0.051616 	4921 	0.051139
37.99 	0.055782 	4912 	0.055066
38.03 	0.057446 	4909 	0.056352
38.07 	0.055816 	4909 	0.055200
38.11 	0.059777 	4935 	0.058828
38.15 	0.059984 	4918 	0.059150
38.19 	0.069168 	4930 	0.067941
38.23 	0.067841 	4938 	0.065350
38.27 	0.062677 	4930 	0.061113
38.31 	0.067384 	4927 	0.066195
38.35 	0.062703 	4928 	0.061514
38.39 	0.070890 	4909 	0.069458
38.43 	0.077909 	4916 	0.076598
38.47 	0.067455 	4907 	0.065783
38.51 	0.068329 	4932 	0.067854
38.55 	0.064830 	4936 	0.063643
38.59 	0.063363 	4924 	0.062054
38.63 	0.067019 	4924 	0.065809
38.67 	0.052866 	4937 	0.052135
38.71 	0.056458 	4924 	0.055625
38.75 	0.059671 	4927 	0.059077
38.79 	0.053709 	4934 	0.053234
38.83 	0.053060 	4919 	0.051988
38.87 	0.059255 	4911 	0.058062
38.91 	0.057312 	4903 	0.055759
38.95 	0.053884 	4918 	0.053169
38.99 	0.052664 	4937 	0.051952
39.03 	0.051074 	4934 	0.050362
39.07 	0.053412 	4924 	0.052560
39.11 	0.048469 	4931 	0.047756
39.15 	0.054934 	4915 	0.053961
39.19 	0.049217 	4917 	0.048740
39.23 	0.049746 	4925 	0.048676
39.27 	0.051324 	4910 	0.050966
39.31 	0.049550 	4884 	0.048470
39.35 	0.053698 	4935 	0.052986
39.39 	0.057415 	4929 	0.056346
39.43 	0.053720 	4933 	0.053245
39.47 	0.057282 	4923 	0.056568
39.51 	0.057474 	4924 	0.056760
39.55 	0.057125 	4919 	0.055935
39.59 	0.050489 	4912 	0.049654
39.63 	0.056684 	4922 	0.055494
39.67 	0.051496 	4913 	0.049926
39.71 	0.057406 	4895 	0.056927
39.75 	0.053166 	4928 	0.052096
39.79 	0.056638 	4926 	0.055667
39.83 	0.058776 	4934 	0.057450
39.87 	0.051980 	4925 	0.051266
39.91 	0.049777 	4922 	0.049181
39.95 	0.056562 	4915 	0.055727
39.99 	0.053325 	4932 	0.052613
40.03 	0.053166 	4928 	0.052452
40.07 	0.053829 	4923 	0.052877
40.11 	0.050244 	4916 	0.049291
40.15 	0.055160 	4913 	0.054444
40.19 	0.053155 	4929 	0.052323
40.23 	0.054542 	4932 	0.053335
40.27 	0.055094 	4937 	0.054382
40.31 	0.057704 	4939 	0.056637
40.35 	0.056922 	4919 	0.055731
40.39 	0.053539 	4931 	0.052945
40.43 	0.052215 	4922 	0.051619
40.47 	0.057137 	4918 	0.056184
40.51 	0.047745 	4922 	0.047388
40.55 	0.048085 	4908 	0.047249
40.59 	0.054487 	4937 	0.053132
40.63 	0.052333 	4930 	0.051600
40.67 	0.054136 	4932 	0.054017
40.71 	0.054136 	4932 	0.053186
40.75 	0.053742 	4931 	0.053266
40.79 	0.056661 	4924 	0.055472
40.83 	0.051136 	4928 	0.049948
40.87 	0.050122 	4928 	0.049527
40.91 	0.050376 	4923 	0.049642
40.95 	0.055567 	4913 	0.054236
40.99 	0.051381 	4924 	0.050667
41.03 	0.050561 	4905 	0.049844
41.07 	0.049087 	4930 	0.047879
41.11 	0.052482 	4935 	0.051414
41.15 	0.050192 	4941 	0.049599
41.19 	0.054564 	4930 	0.053495
41.23 	0.053250 	4939 	0.052419
41.27 	0.050497 	4931 	0.049546
41.31 	0.049463 	4933 	0.048157
41.35 	0.050830 	4938 	0.050356
41.39 	0.047841 	4933 	0.047366
41.43 	0.050923 	4929 	0.050210
41.47 	0.055014 	4926 	0.053706
41.51 	0.046761 	4940 	0.046168
41.55 	0.052888 	4935 	0.052156
41.59 	0.052909 	4933 	0.052078
41.63 	0.047590 	4938 	0.047116
41.67 	0.050405 	4940 	0.049931
41.71 	0.052898 	4934 	0.051810
41.75 	0.050517 	4929 	0.049428
41.79 	0.044903 	4944 	0.043955
41.83 	0.051948 	4928 	0.051235
41.87 	0.055522 	4935 	0.054691
41.91 	0.051459 	4936 	0.050865
41.95 	0.047455 	4931 	0.047098
41.99 	0.048318 	4905 	0.047721
42.03 	0.050820 	4939 	0.050227
42.07 	0.051651 	4937 	0.050702
42.11 	0.052578 	4945 	0.051631
42.15 	0.047185 	4938 	0.046948
42.19 	0.047677 	4908 	0.046842
42.23 	0.044154 	4892 	0.043416
42.27 	0.046779 	4874 	0.046058
42.31 	0.042842 	4855 	0.042360
42.35 	0.047747 	4838 	0.047384
42.39 	0.047252 	4804 	0.046765
42.43 	0.044866 	4792 	0.044357
42.47 	0.048478 	4765 	0.047987
42.51 	0.047227 	4743 	0.046116
42.55 	0.045667 	4708 	0.045045
42.59 	0.048425 	4729 	0.047661
42.63 	0.043321 	4709 	0.042575
42.67 	0.046114 	4684 	0.045864
42.71 	0.052541 	4663 	0.051285
42.75 	0.045917 	4617 	0.044522
42.79 	0.048232 	4582 	0.047465
42.83 	0.044092 	4536 	0.043704
42.87 	0.048900 	4499 	0.048379
42.91 	0.052065 	4456 	0.051539
42.95 	0.050951 	4416 	0.050023
42.99 	0.051767 	4385 	0.051233
43.03 	0.048696 	4333 	0.047344
43.07 	0.047020 	4296 	0.046611
43.11 	0.046769 	4255 	0.045805
43.15 	0.053733 	4206 	0.052619
43.19 	0.053171 	4194 	0.052473
43.23 	0.047424 	4154 	0.047142
43.27 	0.047990 	4105 	0.047419
43.31 	0.048296 	4079 	0.047291
43.35 	0.045883 	4032 	0.045302
43.39 	0.053723 	4002 	0.053138
43.43 	0.052273 	3960 	0.051237
43.47 	0.051773 	3921 	0.050876
43.51 	0.048233 	3877 	0.047629
43.55 	0.046221 	2964 	0.045036
43.59 	0.051546 	1746 	0.050540
43.63 	0.061938 	1001 	0.060768
43.67 	0.037849 	502 	0.037849
43.71 	0.037657 	239 	0.037657
43.75 	0.062500 	16 	0.062500