File: Example_Data/25SC_s1_0014.004.dat
#F C:\frames\spec\25SC_s1_0014.004
#C title =s:14 frm:4 25SC_s1
#C wavelength =0.15406

#S 1  fr_average C:\frames\spec\25SC_s1_0014.004 C:\win32app\speccom\mask.axs chi 0 180 0 360 0.02
#C 2 theta =0.000000 to 180 deg
#C   q   =0.000000 to 81.568 nm^-1
#C  chi  =0.000000 to 360 deg
#C collumns:
#C  1 position (2theta or chi in degrees)
#C  2 average intensity (sum of all counts in the region divided with number of pixels)
#C  3 Number of pixels in region)
#C  4 error (sum of sqrt(intensity) for all pixels divided by number)
#N 4
#L TTh  Int  N_pix  Err
32.99 	0.032787 	61 	0.032787
33.03 	0.078361 	1391 	0.077519
33.07 	0.065366 	2050 	0.064176
33.11 	0.061652 	2579 	0.061198
33.15 	0.062354 	2999 	0.061377
33.19 	0.054458 	3342 	0.053757
33.23 	0.060176 	3523 	0.059012
33.27 	0.052342 	3630 	0.052019
33.31 	0.058197 	3660 	0.057396
33.35 	0.059285 	3694 	0.058492
33.39 	0.060070 	3729 	0.059284
33.43 	0.060090 	3761 	0.059467
33.47 	0.047920 	3798 	0.047611
33.51 	0.057667 	3815 	0.057206
33.55 	0.063752 	3843 	0.062355
33.59 	0.061598 	3880 	0.060692
33.63 	0.062516 	3919 	0.061918
33.67 	0.067527 	3954 	0.066193
33.71 	0.061635 	3975 	0.060309
33.75 	0.060765 	3999 	0.059423
33.79 	0.060381 	4041 	0.059656
33.83 	0.058025 	4050 	0.057301
33.87 	0.063002 	4111 	0.062147
33.91 	0.068932 	4149 	0.067944
33.95 	0.049749 	4181 	0.048628
33.99 	0.059762 	4200 	0.058367
34.03 	0.057964 	4244 	0.056561
34.07 	0.062559 	4268 	0.061186
34.11 	0.060205 	4302 	0.059660
34.15 	0.058185 	4331 	0.057103
34.19 	0.067859 	4362 	0.065710
34.23 	0.058730 	4393 	0.058063
34.27 	0.059928 	4422 	0.058735
34.31 	0.060341 	4458 	0.059268
34.35 	0.061106 	4484 	0.060192
34.39 	0.057086 	4502 	0.056435
34.43 	0.061908 	4539 	0.060746
34.47 	0.066855 	4592 	0.065835
34.51 	0.058402 	4606 	0.057766
34.55 	0.063752 	4643 	0.062364
34.59 	0.064599 	4675 	0.063722
34.63 	0.059023 	4710 	0.057904
34.67 	0.056106 	4741 	0.054747
34.71 	0.054133 	4766 	0.053150
34.75 	0.056364 	4808 	0.055268
34.79 	0.061982 	4824 	0.060869
34.83 	0.060469 	4862 	0.059264
34.87 	0.056697 	4868 	0.055975
34.91 	0.055715 	4882 	0.054995
34.95 	0.056851 	4890 	0.056012
34.99 	0.057178 	4897 	0.056341
35.03 	0.060085 	4943 	0.059255
35.07 	0.059919 	4940 	0.058615
35.11 	0.057813 	4947 	0.056984
35.15 	0.062791 	4937 	0.060537
35.19 	0.065358 	4942 	0.064035
35.23 	0.061678 	4945 	0.061442
35.27 	0.061843 	4948 	0.061133
35.31 	0.055342 	4933 	0.054867
35.35 	0.061918 	4942 	0.060377
35.39 	0.064914 	4945 	0.063710
35.43 	0.059599 	4933 	0.057679
35.47 	0.056581 	4931 	0.055512
35.51 	0.053187 	4926 	0.052712
35.55 	0.063296 	4945 	0.062585
35.59 	0.057027 	4945 	0.056317
35.63 	0.060894 	4943 	0.059591
35.67 	0.058883 	4942 	0.058172
35.71 	0.060361 	4937 	0.059174
35.75 	0.067329 	4931 	0.065884
35.79 	0.060624 	4932 	0.059674
35.83 	0.062879 	4946 	0.061794
35.87 	0.060532 	4923 	0.059342
35.91 	0.054597 	4927 	0.053884
35.95 	0.059589 	4917 	0.058755
35.99 	0.064993 	4939 	0.063451
36.03 	0.064940 	4943 	0.064111
36.07 	0.065600 	4939 	0.064770
36.11 	0.059647 	4929 	0.058815
36.15 	0.058311 	4939 	0.057125
36.19 	0.058300 	4940 	0.057114
36.23 	0.056940 	4935 	0.055753
36.27 	0.060508 	4925 	0.059556
36.31 	0.058442 	4928 	0.057609
36.35 	0.057821 	4929 	0.056989
36.39 	0.060557 	4921 	0.059843
36.43 	0.060268 	4928 	0.059079
36.47 	0.063412 	4936 	0.062581
36.51 	0.057977 	4933 	0.056671
36.55 	0.059265 	4927 	0.058076
36.59 	0.059729 	4939 	0.058661
36.63 	0.055567 	4931 	0.054022
36.67 	0.058418 	4930 	0.057824
36.71 	0.059947 	4921 	0.058281
36.75 	0.059668 	4944 	0.058957
36.79 	0.062589 	4921 	0.061756
36.83 	0.057579 	4915 	0.056129
36.87 	0.057039 	4944 	0.056328
36.91 	0.053026 	4941 	0.051840
36.95 	0.057166 	4933 	0.056216
36.99 	0.056738 	4935 	0.055551
37.03 	0.055849 	4924 	0.054283
37.07 	0.058156 	4935 	0.057325
37.11 	0.057143 	4935 	0.056193
37.15 	0.057038 	4909 	0.055129
37.19 	0.046497 	4925 	0.046141
37.23 	0.053884 	4918 	0.052673
37.27 	0.052309 	4894 	0.051471
37.31 	0.049037 	4935 	0.048088
37.35 	0.057716 	4938 	0.056984
37.39 	0.051511 	4931 	0.050779
37.43 	0.049270 	4932 	0.049033
37.47 	0.053966 	4929 	0.053134
37.51 	0.059193 	4933 	0.058243
37.55 	0.047059 	4930 	0.046683
37.59 	0.063072 	4915 	0.062238
37.63 	0.055092 	4919 	0.054378
37.67 	0.057912 	4904 	0.057315
37.71 	0.063502 	4929 	0.061957
37.75 	0.058097 	4940 	0.056793
37.79 	0.067140 	4930 	0.066071
37.83 	0.058740 	4920 	0.057192
37.87 	0.059729 	4939 	0.059136
37.91 	0.053550 	4930 	0.052718
37.95 	0.056493 	4921 	0.055778
37.99 	0.052728 	4912 	0.052370
38.03 	0.058871 	4909 	0.057798
38.07 	0.059483 	4909 	0.058647
38.11 	0.061398 	4935 	0.060449
38.15 	0.055104 	4918 	0.054151
38.19 	0.050304 	4930 	0.049453
38.23 	0.063994 	4938 	0.063044
38.27 	0.055578 	4930 	0.054628
38.31 	0.068399 	4927 	0.066972
38.35 	0.066964 	4928 	0.065043
38.39 	0.069057 	4909 	0.067386
38.43 	0.065094 	4916 	0.064498
38.47 	0.064398 	4907 	0.063682
38.51 	0.063463 	4932 	0.062157
38.55 	0.064222 	4936 	0.063273
38.59 	0.063769 	4924 	0.061965
38.63 	0.061129 	4924 	0.060177
38.67 	0.056715 	4937 	0.055865
38.71 	0.059911 	4924 	0.059078
38.75 	0.051350 	4927 	0.050636
38.79 	0.051682 	4934 	0.051326
38.83 	0.058548 	4919 	0.057953
38.87 	0.057829 	4911 	0.056517
38.91 	0.052009 	4903 	0.051412
38.95 	0.047580 	4918 	0.047104
38.99 	0.051448 	4937 	0.050855
39.03 	0.052493 	4934 	0.051662
39.07 	0.059708 	4924 	0.058875
39.11 	0.054553 	4931 	0.054196
39.15 	0.052696 	4915 	0.052100
39.19 	0.060199 	4917 	0.059365
39.23 	0.050761 	4925 	0.049691
39.27 	0.050509 	4910 	0.050032
39.31 	0.051597 	4884 	0.050638
39.35 	0.055724 	4935 	0.054537
39.39 	0.055589 	4929 	0.054876
39.43 	0.059396 	4933 	0.058921
39.47 	0.062970 	4923 	0.061899
39.51 	0.051584 	4924 	0.050751
39.55 	0.054686 	4919 	0.053733
39.59 	0.052117 	4912 	0.050686
39.63 	0.057700 	4922 	0.056629
39.67 	0.054956 	4913 	0.053883
39.71 	0.054545 	4895 	0.053708
39.75 	0.055398 	4928 	0.054328
39.79 	0.056435 	4926 	0.056197
39.83 	0.056141 	4934 	0.054816
39.87 	0.056447 	4925 	0.055119
39.91 	0.056481 	4922 	0.055291
39.95 	0.056155 	4915 	0.054963
39.99 	0.052109 	4932 	0.051990
40.03 	0.056412 	4928 	0.055818
40.07 	0.057892 	4923 	0.056940
40.11 	0.052278 	4916 	0.051186
40.15 	0.055160 	4913 	0.054325
40.19 	0.054981 	4929 	0.054010
40.23 	0.054745 	4932 	0.054151
40.27 	0.056715 	4937 	0.055291
40.31 	0.048390 	4939 	0.047560
40.35 	0.054483 	4919 	0.053054
40.39 	0.060434 	4931 	0.059484
40.43 	0.053027 	4922 	0.052075
40.47 	0.055307 	4918 	0.054573
40.51 	0.057497 	4922 	0.056783
40.55 	0.047881 	4908 	0.047165
40.59 	0.049625 	4937 	0.049269
40.63 	0.045639 	4930 	0.044926
40.67 	0.058394 	4932 	0.057325
40.71 	0.057583 	4932 	0.056138
40.75 	0.049888 	4931 	0.049057
40.79 	0.056052 	4924 	0.054981
40.83 	0.052963 	4928 	0.052606
40.87 	0.050122 	4928 	0.049290
40.91 	0.049360 	4923 	0.048389
40.95 	0.054753 	4913 	0.053560
40.99 	0.050569 	4924 	0.049855
41.03 	0.053211 	4905 	0.052833
41.07 	0.055375 	4930 	0.054544
41.11 	0.054509 	4935 	0.053915
41.15 	0.046549 	4941 	0.045818
41.19 	0.045030 	4930 	0.044674
41.23 	0.050820 	4939 	0.049515
41.27 	0.054350 	4931 	0.053756
41.31 	0.052098 	4933 	0.051129
41.35 	0.048603 	4938 	0.047891
41.39 	0.052706 	4933 	0.051994
41.43 	0.046460 	4929 	0.045747
41.47 	0.053796 	4926 	0.053439
41.51 	0.054049 	4940 	0.052507
41.55 	0.056535 	4935 	0.055585
41.59 	0.046422 	4933 	0.044997
41.63 	0.050223 	4938 	0.049630
41.67 	0.050202 	4940 	0.049254
41.71 	0.045399 	4934 	0.045043
41.75 	0.047474 	4929 	0.046523
41.79 	0.049555 	4944 	0.048844
41.83 	0.048295 	4928 	0.047939
41.87 	0.050456 	4935 	0.049744
41.91 	0.050243 	4936 	0.049531
41.95 	0.049077 	4931 	0.048483
41.99 	0.050357 	4905 	0.049401
42.03 	0.049605 	4939 	0.048775
42.07 	0.049220 	4937 	0.049102
42.11 	0.048129 	4945 	0.047063
42.15 	0.044552 	4938 	0.043841
42.19 	0.042787 	4908 	0.042549
42.23 	0.048242 	4892 	0.046805
42.27 	0.051087 	4874 	0.050366
42.31 	0.048404 	4855 	0.047680
42.35 	0.050021 	4838 	0.049415
42.39 	0.050375 	4804 	0.049643
42.43 	0.043197 	4792 	0.042586
42.47 	0.047849 	4765 	0.047111
42.51 	0.049968 	4743 	0.049845
42.55 	0.048216 	4708 	0.047843
42.59 	0.043138 	4729 	0.041899
42.63 	0.043534 	4709 	0.043160
42.67 	0.051452 	4684 	0.050952
42.71 	0.050611 	4663 	0.050109
42.75 	0.052848 	4617 	0.052193
42.79 	0.046923 	4582 	0.046411
42.83 	0.048280 	4536 	0.047506
42.87 	0.050678 	4499 	0.049767
42.91 	0.052513 	4456 	0.051462
42.95 	0.050951 	4416 	0.050288
42.99 	0.049715 	4385 	0.048913
43.03 	0.053773 	4333 	0.053233
43.07 	0.049348 	4296 	0.048666
43.11 	0.050764 	4255 	0.049800
43.15 	0.048264 	4206 	0.047707
43.19 	0.048164 	4194 	0.047466
43.23 	0.050554 	4154 	0.049708
43.27 	0.038246 	4105 	0.037675
43.31 	0.050503 	4079 	0.049497
43.35 	0.044395 	4032 	0.043645
43.39 	0.048226 	4002 	0.047640
43.43 	0.050758 	3960 	0.050018
43.47 	0.045907 	3921 	0.045608
43.51 	0.045396 	3877 	0.044489
43.55 	0.054993 	2964 	0.053215
43.59 	0.055556 	1746 	0.054885
43.63 	0.047952 	1001 	0.044441
43.67 	0.055777 	502 	0.053443
43.71 	0.029289 	239 	0.029289
43.75 	0.000000 	16 	0.000000