File: Example_Data/25SC_s1_0048.003.dat
#F C:\frames\spec\25SC_s1_0048.003
#C title =s:48 frm:3 25SC_s1
#C wavelength =0.15406

#S 1  fr_average C:\frames\spec\25SC_s1_0048.003 C:\win32app\speccom\mask.axs chi 0 180 0 360 0.02
#C 2 theta =0.000000 to 180 deg
#C   q   =0.000000 to 81.568 nm^-1
#C  chi  =0.000000 to 360 deg
#C collumns:
#C  1 position (2theta or chi in degrees)
#C  2 average intensity (sum of all counts in the region divided with number of pixels)
#C  3 Number of pixels in region)
#C  4 error (sum of sqrt(intensity) for all pixels divided by number)
#N 4
#L TTh  Int  N_pix  Err
32.99 	0.032787 	61 	0.032787
33.03 	0.060388 	1391 	0.059546
33.07 	0.069268 	2050 	0.068411
33.11 	0.058550 	2579 	0.057414
33.15 	0.056686 	2999 	0.056490
33.19 	0.056553 	3342 	0.055677
33.23 	0.055634 	3523 	0.054803
33.27 	0.063912 	3630 	0.063105
33.31 	0.060109 	3660 	0.059629
33.35 	0.053600 	3694 	0.051989
33.39 	0.054170 	3729 	0.053385
33.43 	0.059293 	3761 	0.058358
33.47 	0.062928 	3798 	0.061231
33.51 	0.054784 	3815 	0.053709
33.55 	0.059329 	3843 	0.058414
33.59 	0.058505 	3880 	0.057297
33.63 	0.061240 	3919 	0.060792
33.67 	0.056399 	3954 	0.055658
33.71 	0.058365 	3975 	0.057038
33.75 	0.051013 	3999 	0.050280
33.79 	0.063351 	4041 	0.062626
33.83 	0.056543 	4050 	0.055675
33.87 	0.059596 	4111 	0.058124
33.91 	0.067245 	4149 	0.064234
33.95 	0.056924 	4181 	0.056060
33.99 	0.058333 	4200 	0.056939
34.03 	0.055608 	4244 	0.055194
34.07 	0.058575 	4268 	0.057752
34.11 	0.061832 	4302 	0.060742
34.15 	0.059109 	4331 	0.057621
34.19 	0.062357 	4362 	0.060745
34.23 	0.063965 	4393 	0.063299
34.27 	0.064903 	4422 	0.062761
34.31 	0.055855 	4458 	0.055066
34.35 	0.055754 	4484 	0.054557
34.39 	0.052643 	4502 	0.051863
34.43 	0.059264 	4539 	0.058490
34.47 	0.058145 	4592 	0.056827
34.51 	0.059922 	4606 	0.058629
34.55 	0.055137 	4643 	0.054632
34.59 	0.055615 	4675 	0.054237
34.63 	0.060510 	4710 	0.059390
34.67 	0.054630 	4741 	0.054136
34.71 	0.062316 	4766 	0.061702
34.75 	0.060732 	4808 	0.060367
34.79 	0.063433 	4824 	0.062219
34.83 	0.053270 	4862 	0.052427
34.87 	0.054232 	4868 	0.053149
34.91 	0.061860 	4882 	0.060760
34.95 	0.058282 	4890 	0.056485
34.99 	0.063508 	4897 	0.062910
35.03 	0.056848 	4943 	0.056374
35.07 	0.053644 	4940 	0.052695
35.11 	0.057813 	4947 	0.057339
35.15 	0.060766 	4937 	0.059935
35.19 	0.055443 	4942 	0.054495
35.23 	0.054196 	4945 	0.053111
35.27 	0.066896 	4948 	0.065692
35.31 	0.060815 	4933 	0.059370
35.35 	0.061109 	4942 	0.059805
35.39 	0.057230 	4945 	0.056499
35.43 	0.060004 	4933 	0.058698
35.47 	0.059217 	4931 	0.058504
35.51 	0.064149 	4926 	0.063317
35.55 	0.062083 	4945 	0.061017
35.59 	0.058645 	4945 	0.057579
35.63 	0.054623 	4943 	0.053319
35.67 	0.060907 	4942 	0.060077
35.71 	0.058335 	4937 	0.057030
35.75 	0.063070 	4931 	0.062001
35.79 	0.060219 	4932 	0.059487
35.83 	0.053174 	4946 	0.052582
35.87 	0.059517 	4923 	0.058922
35.91 	0.061092 	4927 	0.060141
35.95 	0.052471 	4917 	0.050565
35.99 	0.065600 	4939 	0.064414
36.03 	0.054420 	4943 	0.053690
36.07 	0.060741 	4939 	0.059436
36.11 	0.054778 	4929 	0.053946
36.15 	0.056084 	4939 	0.054898
36.19 	0.056073 	4940 	0.055124
36.23 	0.058359 	4935 	0.057646
36.27 	0.056650 	4925 	0.056531
36.31 	0.054383 	4928 	0.053670
36.35 	0.054372 	4929 	0.053540
36.39 	0.054054 	4921 	0.053221
36.43 	0.059862 	4928 	0.059010
36.47 	0.055916 	4936 	0.055085
36.51 	0.055950 	4933 	0.054643
36.55 	0.058656 	4927 	0.057705
36.59 	0.050010 	4939 	0.049417
36.63 	0.051308 	4931 	0.050476
36.67 	0.055172 	4930 	0.054578
36.71 	0.054257 	4921 	0.053305
36.75 	0.060275 	4944 	0.059564
36.79 	0.056696 	4921 	0.055624
36.83 	0.057172 	4915 	0.056080
36.87 	0.059061 	4944 	0.057739
36.91 	0.057478 	4941 	0.056411
36.95 	0.056152 	4933 	0.055321
36.99 	0.056940 	4935 	0.055872
37.03 	0.057474 	4924 	0.056641
37.07 	0.050456 	4935 	0.050100
37.11 	0.048024 	4935 	0.047193
37.15 	0.049705 	4909 	0.048989
37.19 	0.052386 	4925 	0.051910
37.23 	0.053884 	4918 	0.052454
37.27 	0.051900 	4894 	0.051302
37.31 	0.050456 	4935 	0.049506
37.35 	0.051033 	4938 	0.049965
37.39 	0.049686 	4931 	0.049210
37.43 	0.055150 	4932 	0.054081
37.47 	0.053763 	4929 	0.052694
37.51 	0.048652 	4933 	0.048058
37.55 	0.053550 	4930 	0.052837
37.59 	0.055544 	4915 	0.054233
37.63 	0.048994 	4919 	0.048517
37.67 	0.047716 	4904 	0.047119
37.71 	0.050720 	4929 	0.050245
37.75 	0.051012 	4940 	0.050538
37.79 	0.056795 	4930 	0.055706
37.83 	0.057724 	4920 	0.056771
37.87 	0.051630 	4939 	0.050800
37.91 	0.044625 	4930 	0.043793
37.95 	0.058118 	4921 	0.056690
37.99 	0.049674 	4912 	0.048601
38.03 	0.054797 	4909 	0.053127
38.07 	0.051131 	4909 	0.050057
38.11 	0.053293 	4935 	0.051968
38.15 	0.050630 	4918 	0.050035
38.19 	0.059432 	4930 	0.057887
38.23 	0.061361 	4938 	0.061005
38.27 	0.053550 	4930 	0.052718
38.31 	0.055003 	4927 	0.053339
38.35 	0.057021 	4928 	0.055951
38.39 	0.060705 	4909 	0.059154
38.43 	0.064076 	4916 	0.062984
38.47 	0.061952 	4907 	0.060878
38.51 	0.063666 	4932 	0.062597
38.55 	0.060575 	4936 	0.059132
38.59 	0.061738 	4924 	0.061144
38.63 	0.055646 	4924 	0.054813
38.67 	0.058943 	4937 	0.057756
38.71 	0.057474 	4924 	0.056046
38.75 	0.054800 	4927 	0.053492
38.79 	0.057357 	4934 	0.056170
38.83 	0.053263 	4919 	0.052072
38.87 	0.058033 	4911 	0.056840
38.91 	0.050785 	4903 	0.049829
38.95 	0.049004 	4918 	0.048408
38.99 	0.051043 	4937 	0.050331
39.03 	0.045602 	4934 	0.045364
39.07 	0.048944 	4924 	0.048468
39.11 	0.051308 	4931 	0.050001
39.15 	0.047202 	4915 	0.046229
39.19 	0.047793 	4917 	0.047198
39.23 	0.049137 	4925 	0.048067
39.27 	0.055193 	4910 	0.054120
39.31 	0.047297 	4884 	0.046818
39.35 	0.056332 	4935 	0.055858
39.39 	0.045851 	4929 	0.045019
39.43 	0.048247 	4933 	0.047890
39.47 	0.045298 	4923 	0.044445
39.51 	0.045695 	4924 	0.045100
39.55 	0.045538 	4919 	0.044466
39.59 	0.049471 	4912 	0.048994
39.63 	0.049777 	4922 	0.048467
39.67 	0.047832 	4913 	0.047117
39.71 	0.045557 	4895 	0.045198
39.75 	0.045455 	4928 	0.044741
39.79 	0.049736 	4926 	0.049023
39.83 	0.048845 	4934 	0.047895
39.87 	0.052589 	4925 	0.051994
39.91 	0.052011 	4922 	0.050802
39.95 	0.045575 	4915 	0.044621
39.99 	0.047040 	4932 	0.046327
40.03 	0.051136 	4928 	0.050423
40.07 	0.052001 	4923 	0.051406
40.11 	0.048007 	4916 	0.047292
40.15 	0.043151 	4913 	0.042197
40.19 	0.046054 	4929 	0.045222
40.23 	0.046837 	4932 	0.046362
40.27 	0.050030 	4937 	0.049556
40.31 	0.043936 	4939 	0.043106
40.35 	0.051637 	4919 	0.050684
40.39 	0.048672 	4931 	0.048078
40.43 	0.043681 	4922 	0.042472
40.47 	0.046360 	4918 	0.046003
40.51 	0.046932 	4922 	0.046456
40.55 	0.044417 	4908 	0.044179
40.59 	0.040510 	4937 	0.039542
40.63 	0.039148 	4930 	0.038673
40.67 	0.043998 	4932 	0.042791
40.71 	0.042579 	4932 	0.042342
40.75 	0.050700 	4931 	0.049730
40.79 	0.044476 	4924 	0.043643
40.83 	0.047687 	4928 	0.046973
40.87 	0.046266 	4928 	0.045791
40.91 	0.046719 	4923 	0.045768
40.95 	0.049257 	4913 	0.048303
40.99 	0.041024 	4924 	0.040548
41.03 	0.046483 	4905 	0.045647
41.07 	0.044219 	4930 	0.043506
41.11 	0.044782 	4935 	0.044189
41.15 	0.044121 	4941 	0.043646
41.19 	0.045639 	4930 	0.045520
41.23 	0.044138 	4939 	0.043190
41.27 	0.050497 	4931 	0.049171
41.31 	0.043787 	4933 	0.043292
41.35 	0.041920 	4938 	0.041801
41.39 	0.043787 	4933 	0.042956
41.43 	0.044431 	4929 	0.043599
41.47 	0.046082 	4926 	0.044893
41.51 	0.046761 	4940 	0.045931
41.55 	0.040122 	4935 	0.039291
41.59 	0.046422 	4933 	0.046185
41.63 	0.041717 	4938 	0.041361
41.67 	0.043725 	4940 	0.042895
41.71 	0.049250 	4934 	0.048419
41.75 	0.041388 	4929 	0.041269
41.79 	0.043892 	4944 	0.043181
41.83 	0.045252 	4928 	0.045014
41.87 	0.041135 	4935 	0.039948
41.91 	0.040924 	4936 	0.040430
41.95 	0.042385 	4931 	0.041553
41.99 	0.038328 	4905 	0.038209
42.03 	0.039482 	4939 	0.039007
42.07 	0.043549 	4937 	0.042599
42.11 	0.046107 	4945 	0.045396
42.15 	0.046780 	4938 	0.046424
42.19 	0.042380 	4908 	0.041902
42.23 	0.038021 	4892 	0.037423
42.27 	0.039803 	4874 	0.039322
42.31 	0.045314 	4855 	0.044831
42.35 	0.041753 	4838 	0.041632
42.39 	0.043089 	4804 	0.042845
42.43 	0.048623 	4792 	0.048134
42.47 	0.039664 	4765 	0.038927
42.51 	0.042378 	4743 	0.041350
42.55 	0.043543 	4708 	0.043045
42.59 	0.045041 	4729 	0.044298
42.63 	0.037800 	4709 	0.037551
42.67 	0.040137 	4684 	0.040012
42.71 	0.042891 	4663 	0.042388
42.75 	0.043968 	4617 	0.043587
42.79 	0.040812 	4582 	0.040812
42.83 	0.039903 	4536 	0.039516
42.87 	0.044232 	4499 	0.043841
42.91 	0.042415 	4456 	0.042152
42.95 	0.040082 	4416 	0.039551
42.99 	0.038312 	4385 	0.037778
43.03 	0.043157 	4333 	0.043157
43.07 	0.042365 	4296 	0.041683
43.11 	0.045123 	4255 	0.044573
43.15 	0.036852 	4206 	0.036713
43.19 	0.044588 	4194 	0.043610
43.23 	0.041887 	4154 	0.041041
43.27 	0.039951 	4105 	0.039380
43.31 	0.038980 	4079 	0.038980
43.35 	0.041915 	4032 	0.041188
43.39 	0.035482 	4002 	0.034750
43.43 	0.043687 	3960 	0.043243
43.47 	0.034175 	3921 	0.033727
43.51 	0.041785 	3877 	0.041005
43.55 	0.045547 	2964 	0.045547
43.59 	0.045246 	1746 	0.043904
43.63 	0.033966 	1001 	0.033966
43.67 	0.043825 	502 	0.043825
43.71 	0.041841 	239 	0.041841
43.75 	0.000000 	16 	0.000000