File: Example_Data/25SC_s1_0003.002.dat
#F C:\frames\spec\25SC_s1_0003.002
#C title =s:3 frm:2 25SC_s1
#C wavelength =0.15406

#S 1  fr_average C:\frames\spec\25SC_s1_0003.002 C:\win32app\speccom\mask.axs chi 0 180 0 360 0.02
#C 2 theta =0.000000 to 180 deg
#C   q   =0.000000 to 81.568 nm^-1
#C  chi  =0.000000 to 360 deg
#C collumns:
#C  1 position (2theta or chi in degrees)
#C  2 average intensity (sum of all counts in the region divided with number of pixels)
#C  3 Number of pixels in region)
#C  4 error (sum of sqrt(intensity) for all pixels divided by number)
#N 4
#L TTh  Int  N_pix  Err
32.99 	0.049180 	61 	0.049180
33.03 	0.066139 	1391 	0.066139
33.07 	0.055122 	2050 	0.054265
33.11 	0.067080 	2579 	0.065945
33.15 	0.063354 	2999 	0.061760
33.19 	0.055655 	3342 	0.055305
33.23 	0.064718 	3523 	0.063554
33.27 	0.053444 	3630 	0.052637
33.31 	0.059836 	3660 	0.059356
33.35 	0.062805 	3694 	0.062329
33.39 	0.056047 	3729 	0.055890
33.43 	0.063813 	3761 	0.062411
33.47 	0.061875 	3798 	0.061103
33.51 	0.065007 	3815 	0.064239
33.55 	0.057247 	3843 	0.055723
33.59 	0.064948 	3880 	0.063892
33.63 	0.062261 	3919 	0.062111
33.67 	0.060698 	3954 	0.059365
33.71 	0.062138 	3975 	0.060959
33.75 	0.061515 	3999 	0.059392
33.79 	0.053947 	4041 	0.052932
33.83 	0.051111 	4050 	0.050533
33.87 	0.057893 	4111 	0.056896
33.91 	0.052302 	4149 	0.051455
33.95 	0.064099 	4181 	0.062956
33.99 	0.051905 	4200 	0.051207
34.03 	0.062441 	4244 	0.061613
34.07 	0.059278 	4268 	0.057906
34.11 	0.062064 	4302 	0.061792
34.15 	0.058647 	4331 	0.057520
34.19 	0.061210 	4362 	0.060539
34.23 	0.057592 	4393 	0.056370
34.27 	0.055179 	4422 	0.053986
34.31 	0.060117 	4458 	0.059065
34.35 	0.052186 	4484 	0.051140
34.39 	0.060418 	4502 	0.059247
34.43 	0.060806 	4539 	0.059516
34.47 	0.055096 	4592 	0.054075
34.51 	0.058836 	4606 	0.058328
34.55 	0.057506 	4643 	0.056118
34.59 	0.054759 	4675 	0.053757
34.63 	0.062420 	4710 	0.061425
34.67 	0.058637 	4741 	0.057896
34.71 	0.062526 	4766 	0.061297
34.75 	0.056156 	4808 	0.055182
34.79 	0.055970 	4824 	0.054027
34.83 	0.055327 	4862 	0.055086
34.87 	0.054232 	4868 	0.053149
34.91 	0.064523 	4882 	0.063923
34.95 	0.060736 	4890 	0.059418
34.99 	0.055544 	4897 	0.054826
35.03 	0.054825 	4943 	0.054232
35.07 	0.062348 	4940 	0.061637
35.11 	0.054376 	4947 	0.053311
35.15 	0.058740 	4937 	0.057435
35.19 	0.059288 	4942 	0.058221
35.23 	0.065925 	4945 	0.064148
35.27 	0.069321 	4948 	0.067782
35.31 	0.060409 	4933 	0.059222
35.35 	0.066572 	4942 	0.065505
35.39 	0.060061 	4945 	0.059468
35.43 	0.054936 	4933 	0.053511
35.47 	0.057189 	4931 	0.056120
35.51 	0.062322 	4926 	0.060895
35.55 	0.059656 	4945 	0.058472
35.59 	0.055814 	4945 	0.054136
35.63 	0.062715 	4943 	0.061767
35.67 	0.059692 	4942 	0.058270
35.71 	0.060158 	4937 	0.059209
35.75 	0.054553 	4931 	0.053484
35.79 	0.062044 	4932 	0.061094
35.83 	0.056814 	4946 	0.056103
35.87 	0.057485 	4923 	0.056890
35.91 	0.060280 	4927 	0.058734
35.95 	0.057149 	4917 	0.055957
35.99 	0.057906 	4939 	0.056246
36.03 	0.059680 	4943 	0.058851
36.07 	0.057704 	4939 	0.056518
36.11 	0.057010 	4929 	0.056059
36.15 	0.061753 	4939 	0.061516
36.19 	0.066194 	4940 	0.064771
36.23 	0.062209 	4935 	0.061022
36.27 	0.061320 	4925 	0.059655
36.31 	0.064326 	4928 	0.062781
36.35 	0.061879 	4929 	0.061284
36.39 	0.062386 	4921 	0.061314
36.43 	0.064123 	4928 	0.062935
36.47 	0.056929 	4936 	0.055722
36.51 	0.066491 	4933 	0.064591
36.55 	0.056424 	4927 	0.054601
36.59 	0.055679 	4939 	0.054612
36.63 	0.066315 	4931 	0.064771
36.67 	0.057404 	4930 	0.056928
36.71 	0.067263 	4921 	0.065477
36.75 	0.059871 	4944 	0.058567
36.79 	0.048567 	4921 	0.047853
36.83 	0.057172 	4915 	0.056218
36.87 	0.060073 	4944 	0.059125
36.91 	0.057883 	4941 	0.056816
36.95 	0.057369 	4933 	0.056775
36.99 	0.056332 	4935 	0.055501
37.03 	0.059708 	4924 	0.058875
37.07 	0.056535 	4935 	0.055328
37.11 	0.059574 	4935 	0.058249
37.15 	0.058464 	4909 	0.057867
37.19 	0.060305 	4925 	0.059452
37.23 	0.056324 	4918 	0.055371
37.27 	0.047814 	4894 	0.046976
37.31 	0.056940 	4935 	0.056584
37.35 	0.055488 	4938 	0.054302
37.39 	0.058406 	4931 	0.057456
37.43 	0.058191 	4932 	0.057241
37.47 	0.049909 	4929 	0.049077
37.51 	0.054125 	4933 	0.053294
37.55 	0.058215 	4930 	0.056651
37.59 	0.053713 	4915 	0.053475
37.63 	0.050010 	4919 	0.049177
37.67 	0.051183 	4904 	0.050347
37.71 	0.050923 	4929 	0.050448
37.75 	0.054453 	4940 	0.053386
37.79 	0.055172 	4930 	0.054697
37.83 	0.056301 	4920 	0.055586
37.87 	0.053857 	4939 	0.052908
37.91 	0.051927 	4930 	0.050976
37.95 	0.053851 	4921 	0.052899
37.99 	0.052932 	4912 	0.052455
38.03 	0.056834 	4909 	0.055283
38.07 	0.053982 	4909 	0.053386
38.11 	0.054306 	4935 	0.053594
38.15 	0.053477 	4918 	0.052128
38.19 	0.051116 	4930 	0.050403
38.23 	0.056298 	4938 	0.055586
38.27 	0.058621 	4930 	0.057769
38.31 	0.058453 	4927 	0.056888
38.35 	0.062094 	4928 	0.060549
38.39 	0.069872 	4909 	0.068559
38.43 	0.057974 	4916 	0.056663
38.47 	0.067047 	4907 	0.065853
38.51 	0.072182 	4932 	0.071469
38.55 	0.065843 	4936 	0.065131
38.59 	0.061535 	4924 	0.060703
38.63 	0.062348 	4924 	0.060544
38.67 	0.054284 	4937 	0.053216
38.71 	0.056255 	4924 	0.055303
38.75 	0.062716 	4927 	0.062002
38.79 	0.053506 	4934 	0.051963
38.83 	0.053060 	4919 	0.052821
38.87 	0.054571 	4911 	0.053617
38.91 	0.054456 	4903 	0.053859
38.95 	0.049614 	4918 	0.048661
38.99 	0.046182 	4937 	0.045470
39.03 	0.047021 	4934 	0.046190
39.07 	0.043461 	4924 	0.042985
39.11 	0.049483 	4931 	0.048889
39.15 	0.051068 	4915 	0.050591
39.19 	0.044336 	4917 	0.043740
39.23 	0.045482 	4925 	0.044650
39.27 	0.048473 	4910 	0.048115
39.31 	0.040336 	4884 	0.039496
39.35 	0.049037 	4935 	0.048207
39.39 	0.047068 	4929 	0.045880
39.43 	0.045408 	4933 	0.044914
39.47 	0.043266 	4923 	0.042433
39.51 	0.048741 	4924 	0.048146
39.55 	0.047164 	4919 	0.046688
39.59 	0.043974 	4912 	0.043139
39.63 	0.046323 	4922 	0.046085
39.67 	0.048443 	4913 	0.047608
39.71 	0.050460 	4895 	0.050220
39.75 	0.043425 	4928 	0.042693
39.79 	0.046691 	4926 	0.046215
39.83 	0.045805 	4934 	0.045448
39.87 	0.051371 	4925 	0.050657
39.91 	0.046932 	4922 	0.046575
39.95 	0.044354 	4915 	0.043401
39.99 	0.046837 	4932 	0.046243
40.03 	0.046672 	4928 	0.045721
40.07 	0.045298 	4923 	0.044227
40.11 	0.046786 	4916 	0.046309
40.15 	0.046611 	4913 	0.045657
40.19 	0.048691 	4929 	0.047503
40.23 	0.045215 	4932 	0.044740
40.27 	0.040308 	4937 	0.039952
40.31 	0.045758 	4939 	0.045047
40.35 	0.046554 	4919 	0.045959
40.39 	0.046846 	4931 	0.046371
40.43 	0.044291 	4922 	0.043438
40.47 	0.042090 	4918 	0.041852
40.51 	0.044697 	4922 	0.043983
40.55 	0.049307 	4908 	0.048352
40.59 	0.040105 	4937 	0.039749
40.63 	0.051116 	4930 	0.050046
40.67 	0.044404 	4932 	0.043810
40.71 	0.041565 	4932 	0.041209
40.75 	0.045021 	4931 	0.044051
40.79 	0.045085 	4924 	0.044728
40.83 	0.040787 	4928 	0.039955
40.87 	0.046469 	4928 	0.045994
40.91 	0.049563 	4923 	0.049563
40.95 	0.051292 	4913 	0.050935
40.99 	0.043664 	4924 	0.043069
41.03 	0.046279 	4905 	0.045802
41.07 	0.040365 	4930 	0.040246
41.11 	0.044782 	4935 	0.044426
41.15 	0.046549 	4941 	0.045719
41.19 	0.046045 	4930 	0.045807
41.23 	0.038874 	4939 	0.038400
41.27 	0.044007 	4931 	0.043532
41.31 	0.040341 	4933 	0.040103
41.35 	0.042527 	4938 	0.041816
41.39 	0.041151 	4933 	0.040320
41.43 	0.042199 	4929 	0.041486
41.47 	0.035932 	4926 	0.035694
41.51 	0.046154 	4940 	0.045798
41.55 	0.037690 	4935 	0.037215
41.59 	0.042773 	4933 	0.042061
41.63 	0.043742 	4938 	0.043505
41.67 	0.038664 	4940 	0.038308
41.71 	0.043575 	4934 	0.042744
41.75 	0.041185 	4929 	0.040947
41.79 	0.045510 	4944 	0.044799
41.83 	0.042208 	4928 	0.041613
41.87 	0.036272 	4935 	0.035559
41.91 	0.045178 	4936 	0.044466
41.95 	0.036098 	4931 	0.035861
41.99 	0.038532 	4905 	0.038293
42.03 	0.040696 	4939 	0.040203
42.07 	0.044359 	4937 	0.043528
42.11 	0.036603 	4945 	0.036484
42.15 	0.039692 	4938 	0.039336
42.19 	0.042584 	4908 	0.042345
42.23 	0.042927 	4892 	0.042209
42.27 	0.042675 	4874 	0.042074
42.31 	0.040783 	4855 	0.040300
42.35 	0.037205 	4838 	0.036600
42.39 	0.042256 	4804 	0.041891
42.43 	0.039649 	4792 	0.039283
42.47 	0.037356 	4765 	0.036495
42.51 	0.044276 	4743 	0.043905
42.55 	0.038870 	4708 	0.038103
42.59 	0.038697 	4729 	0.038326
42.63 	0.044171 	4709 	0.043549
42.67 	0.038642 	4684 	0.037892
42.71 	0.039674 	4663 	0.039172
42.75 	0.038553 	4617 	0.038426
42.79 	0.039939 	4582 	0.039428
42.83 	0.039683 	4536 	0.039295
42.87 	0.037564 	4499 	0.037173
42.91 	0.046454 	4456 	0.045928
42.95 	0.041440 	4416 	0.040777
42.99 	0.045382 	4385 	0.045115
43.03 	0.044311 	4333 	0.043906
43.07 	0.041899 	4296 	0.041899
43.11 	0.042773 	4255 	0.042360
43.15 	0.039943 	4206 	0.039664
43.19 	0.034573 	4194 	0.034573
43.23 	0.039480 	4154 	0.038916
43.27 	0.036541 	4105 	0.036113
43.31 	0.039961 	4079 	0.039817
43.35 	0.039187 	4032 	0.039041
43.39 	0.039730 	4002 	0.038998
43.43 	0.037374 	3960 	0.037226
43.47 	0.043866 	3921 	0.043269
43.51 	0.037142 	3877 	0.035933
43.55 	0.038799 	2964 	0.038404
43.59 	0.039519 	1746 	0.039519
43.63 	0.034965 	1001 	0.034965
43.67 	0.031873 	502 	0.031873
43.71 	0.041841 	239 	0.039390
43.75 	0.062500 	16 	0.062500