File: Example_Data/25SC_s1_0031.001.dat
#F C:\frames\spec\25SC_s1_0031.001
#C title =s:31 frm:1 25SC_s1
#C wavelength =0.15406

#S 1  fr_average C:\frames\spec\25SC_s1_0031.001 C:\win32app\speccom\mask.axs chi 0 180 0 360 0.02
#C 2 theta =0.000000 to 180 deg
#C   q   =0.000000 to 81.568 nm^-1
#C  chi  =0.000000 to 360 deg
#C collumns:
#C  1 position (2theta or chi in degrees)
#C  2 average intensity (sum of all counts in the region divided with number of pixels)
#C  3 Number of pixels in region)
#C  4 error (sum of sqrt(intensity) for all pixels divided by number)
#N 4
#L TTh  Int  N_pix  Err
32.99 	0.032787 	61 	0.032787
33.03 	0.062545 	1391 	0.061703
33.07 	0.061951 	2050 	0.061380
33.11 	0.058938 	2579 	0.058256
33.15 	0.057019 	2999 	0.056824
33.19 	0.066727 	3342 	0.065500
33.23 	0.064434 	3523 	0.062605
33.27 	0.056749 	3630 	0.055942
33.31 	0.056011 	3660 	0.055371
33.35 	0.060097 	3694 	0.058961
33.39 	0.056852 	3729 	0.056538
33.43 	0.063015 	3761 	0.061925
33.47 	0.058452 	3798 	0.057064
33.51 	0.065269 	3815 	0.064347
33.55 	0.061150 	3843 	0.060388
33.59 	0.061082 	3880 	0.059573
33.63 	0.063537 	3919 	0.062939
33.67 	0.052352 	3954 	0.051463
33.71 	0.057862 	3975 	0.056683
33.75 	0.067017 	3999 	0.065112
33.79 	0.059639 	4041 	0.058044
33.83 	0.056790 	4050 	0.056356
33.87 	0.057164 	4111 	0.056024
33.91 	0.061220 	4149 	0.060372
33.95 	0.058120 	4181 	0.057700
33.99 	0.050714 	4200 	0.050435
34.03 	0.056786 	4244 	0.056234
34.07 	0.063496 	4268 	0.061712
34.11 	0.057415 	4302 	0.056598
34.15 	0.063496 	4331 	0.062143
34.19 	0.060981 	4362 	0.059638
34.23 	0.054860 	4393 	0.053927
34.27 	0.059023 	4422 	0.058096
34.31 	0.059219 	4458 	0.058694
34.35 	0.060214 	4484 	0.059539
34.39 	0.061972 	4502 	0.061192
34.43 	0.061908 	4539 	0.060875
34.47 	0.059887 	4592 	0.058866
34.51 	0.047112 	4606 	0.046477
34.55 	0.055352 	4643 	0.054343
34.59 	0.058610 	4675 	0.058234
34.63 	0.057537 	4710 	0.056791
34.67 	0.058848 	4741 	0.058354
34.71 	0.057700 	4766 	0.055980
34.75 	0.056780 	4808 	0.055440
34.79 	0.054312 	4824 	0.053340
34.83 	0.056150 	4862 	0.055065
34.87 	0.049918 	4868 	0.049316
34.91 	0.059402 	4882 	0.058182
34.95 	0.057464 	4890 	0.056745
34.99 	0.056565 	4897 	0.056206
35.03 	0.056646 	4943 	0.055342
35.07 	0.057692 	4940 	0.056507
35.11 	0.052759 	4947 	0.051694
35.15 	0.062386 	4937 	0.061674
35.19 	0.054431 	4942 	0.053365
35.23 	0.057027 	4945 	0.056435
35.27 	0.059822 	4948 	0.058875
35.31 	0.048247 	4933 	0.046921
35.35 	0.059490 	4942 	0.058305
35.39 	0.058241 	4945 	0.057175
35.43 	0.059193 	4933 	0.058481
35.47 	0.059826 	4931 	0.059232
35.51 	0.057450 	4926 	0.056856
35.55 	0.048332 	4945 	0.047216
35.59 	0.049747 	4945 	0.048662
35.63 	0.056848 	4943 	0.056019
35.67 	0.055038 	4942 	0.053853
35.71 	0.054284 	4937 	0.053335
35.75 	0.057189 	4931 	0.056476
35.79 	0.060219 	4932 	0.059388
35.83 	0.052972 	4946 	0.052617
35.87 	0.056673 	4923 	0.055602
35.91 	0.057439 	4927 	0.055893
35.95 	0.054708 	4917 	0.053874
35.99 	0.057097 	4939 	0.056029
36.03 	0.055230 	4943 	0.054045
36.07 	0.052237 	4939 	0.051763
36.11 	0.055792 	4929 	0.055198
36.15 	0.054869 	4939 	0.053565
36.19 	0.056478 	4940 	0.055292
36.23 	0.061398 	4935 	0.060211
36.27 	0.062335 	4925 	0.061621
36.31 	0.051136 	4928 	0.050542
36.35 	0.054372 	4929 	0.053659
36.39 	0.059338 	4921 	0.058266
36.43 	0.055195 	4928 	0.054363
36.47 	0.061994 	4936 	0.061163
36.51 	0.054531 	4933 	0.053343
36.55 	0.056424 	4927 	0.055116
36.59 	0.060336 	4939 	0.059506
36.63 	0.061448 	4931 	0.060854
36.67 	0.053955 	4930 	0.053242
36.71 	0.057305 	4921 	0.056353
36.75 	0.057848 	4944 	0.057019
36.79 	0.052632 	4921 	0.051560
36.83 	0.059817 	4915 	0.058248
36.87 	0.057848 	4944 	0.056900
36.91 	0.063752 	4941 	0.063021
36.95 	0.060815 	4933 	0.059627
36.99 	0.050861 	4935 	0.049793
37.03 	0.053615 	4924 	0.052901
37.07 	0.055927 	4935 	0.054977
37.11 	0.055522 	4935 	0.054928
37.15 	0.057446 	4909 	0.056849
37.19 	0.048731 	4925 	0.048017
37.23 	0.058967 	4918 	0.058372
37.27 	0.059461 	4894 	0.059101
37.31 	0.049848 	4935 	0.048998
37.35 	0.052450 	4938 	0.051620
37.39 	0.049686 	4931 	0.049448
37.43 	0.058191 	4932 	0.057479
37.47 	0.056807 	4929 	0.055618
37.51 	0.044800 	4933 	0.044325
37.55 	0.053753 	4930 	0.053158
37.59 	0.056155 	4915 	0.055678
37.63 	0.058955 	4919 	0.058121
37.67 	0.053834 	4904 	0.053117
37.71 	0.047068 	4929 	0.046831
37.75 	0.052227 	4940 	0.051752
37.79 	0.054564 	4930 	0.053732
37.83 	0.051220 	4920 	0.050386
37.87 	0.055477 	4939 	0.054647
37.91 	0.060446 	4930 	0.059020
37.95 	0.054054 	4921 	0.053320
37.99 	0.051099 	4912 	0.050145
38.03 	0.048279 	4909 	0.047801
38.07 	0.053982 	4909 	0.053386
38.11 	0.049645 	4935 	0.048558
38.15 	0.058560 	4918 	0.057846
38.19 	0.060852 	4930 	0.060139
38.23 	0.057918 	4938 	0.057206
38.27 	0.065720 	4930 	0.064532
38.31 	0.057033 	4927 	0.056438
38.35 	0.062703 	4928 	0.061395
38.39 	0.056834 	4909 	0.055760
38.43 	0.074044 	4916 	0.072137
38.47 	0.073365 	4907 	0.071096
38.51 	0.075629 	4932 	0.073847
38.55 	0.074959 	4936 	0.073654
38.59 	0.063972 	4924 	0.063259
38.63 	0.071487 	4924 	0.069702
38.67 	0.064412 	4937 	0.064056
38.71 	0.061942 	4924 	0.060990
38.75 	0.063730 	4927 	0.062423
38.79 	0.059384 	4934 	0.057959
38.83 	0.062818 	4919 	0.061984
38.87 	0.057626 	4911 	0.056791
38.91 	0.054864 	4903 	0.053789
38.95 	0.054087 	4918 	0.053372
38.99 	0.053271 	4937 	0.052915
39.03 	0.048845 	4934 	0.048132
39.07 	0.048944 	4924 	0.048468
39.11 	0.050497 	4931 	0.049665
39.15 	0.046592 	4915 	0.045758
39.19 	0.048403 	4917 	0.047927
39.23 	0.045888 	4925 	0.045532
39.27 	0.046232 	4910 	0.045636
39.31 	0.044226 	4884 	0.043746
39.35 	0.043364 	4935 	0.042889
39.39 	0.047271 	4929 	0.046677
39.43 	0.045814 	4933 	0.045220
39.47 	0.047735 	4923 	0.047140
39.51 	0.041430 	4924 	0.040716
39.55 	0.045334 	4919 	0.044382
39.59 	0.050285 	4912 	0.049808
39.63 	0.043885 	4922 	0.043171
39.67 	0.043965 	4913 	0.043727
39.71 	0.044944 	4895 	0.044226
39.75 	0.047078 	4928 	0.047078
39.79 	0.046488 	4926 	0.046369
39.83 	0.054520 	4934 	0.053689
39.87 	0.044873 	4925 	0.044159
39.91 	0.046323 	4922 	0.045847
39.95 	0.042930 	4915 	0.042096
39.99 	0.039335 	4932 	0.038979
40.03 	0.039367 	4928 	0.039129
40.07 	0.042454 	4923 	0.042097
40.11 	0.042514 	4916 	0.041918
40.15 	0.042133 	4913 	0.041656
40.19 	0.047474 	4929 	0.047118
40.23 	0.039132 	4932 	0.038657
40.27 	0.047397 	4937 	0.046448
40.31 	0.041709 	4939 	0.040879
40.35 	0.040862 	4919 	0.040743
40.39 	0.041777 	4931 	0.041539
40.43 	0.042666 	4922 	0.042309
40.47 	0.040260 	4918 	0.040141
40.51 	0.039618 	4922 	0.039023
40.55 	0.035656 	4908 	0.035059
40.59 	0.041928 	4937 	0.041691
40.63 	0.040365 	4930 	0.040246
40.67 	0.045823 	4932 	0.045586
40.71 	0.041971 	4932 	0.041496
40.75 	0.040154 	4931 	0.039679
40.79 	0.039399 	4924 	0.039042
40.83 	0.042411 	4928 	0.042054
40.87 	0.040787 	4928 	0.040550
40.91 	0.039001 	4923 	0.038168
40.95 	0.043151 	4913 	0.042793
40.99 	0.039399 	4924 	0.039042
41.03 	0.043221 	4905 	0.042604
41.07 	0.042394 	4930 	0.042156
41.11 	0.035664 	4935 	0.035545
41.15 	0.044728 	4941 	0.044016
41.19 	0.047262 	4930 	0.046905
41.23 	0.045151 	4939 	0.044676
41.27 	0.041371 	4931 	0.040777
41.31 	0.042773 	4933 	0.042179
41.35 	0.044755 	4938 	0.043925
41.39 	0.041557 	4933 	0.041438
41.43 	0.042605 	4929 	0.042248
41.47 	0.035932 	4926 	0.035575
41.51 	0.037449 	4940 	0.037094
41.55 	0.043769 	4935 	0.043175
41.59 	0.036489 	4933 	0.036014
41.63 	0.038882 	4938 	0.038170
41.67 	0.037854 	4940 	0.037261
41.71 	0.036482 	4934 	0.035650
41.75 	0.039156 	4929 	0.038562
41.79 	0.037217 	4944 	0.036980
41.83 	0.040584 	4928 	0.040228
41.87 	0.037893 	4935 	0.037280
41.91 	0.035859 	4936 	0.035622
41.95 	0.036098 	4931 	0.035742
41.99 	0.040775 	4905 	0.039819
42.03 	0.035230 	4939 	0.034874
42.07 	0.039295 	4937 	0.038821
42.11 	0.039434 	4945 	0.039197
42.15 	0.041515 	4938 	0.041396
42.19 	0.039120 	4908 	0.038642
42.23 	0.042927 	4892 	0.042548
42.27 	0.037957 	4874 	0.037716
42.31 	0.036457 	4855 	0.035854
42.35 	0.038446 	4838 	0.037961
42.39 	0.037677 	4804 	0.037067
42.43 	0.040067 	4792 	0.039456
42.47 	0.039035 	4765 	0.038666
42.51 	0.037951 	4743 	0.037827
42.55 	0.038233 	4708 	0.037735
42.59 	0.040601 	4729 	0.040229
42.63 	0.040561 	4709 	0.040436
42.67 	0.035867 	4684 	0.035742
42.71 	0.036886 	4663 	0.036509
42.75 	0.038337 	4617 	0.038083
42.79 	0.037102 	4582 	0.036590
42.83 	0.038139 	4536 	0.037494
42.87 	0.042454 	4499 	0.042324
42.91 	0.035682 	4456 	0.035419
42.95 	0.047781 	4416 	0.047118
42.99 	0.041733 	4385 	0.041065
43.03 	0.035772 	4333 	0.035096
43.07 	0.033985 	4296 	0.033576
43.11 	0.036193 	4255 	0.036055
43.15 	0.038516 	4206 	0.038516
43.19 	0.037434 	4194 	0.036876
43.23 	0.038036 	4154 	0.037331
43.27 	0.037272 	4105 	0.036986
43.31 	0.040696 	4079 	0.040265
43.35 	0.040427 	4032 	0.039700
43.39 	0.034483 	4002 	0.034190
43.43 	0.037626 	3960 	0.036887
43.47 	0.034940 	3921 	0.034791
43.51 	0.033015 	3877 	0.032864
43.55 	0.035762 	2964 	0.035367
43.59 	0.037801 	1746 	0.037465
43.63 	0.035964 	1001 	0.035379
43.67 	0.049801 	502 	0.047467
43.71 	0.020921 	239 	0.020921
43.75 	0.000000 	16 	0.000000