File: Example_Data/25SC_s1_0052.002.dat
#F C:\frames\spec\25SC_s1_0052.002
#C title =s:52 frm:2 25SC_s1
#C wavelength =0.15406

#S 1  fr_average C:\frames\spec\25SC_s1_0052.002 C:\win32app\speccom\mask.axs chi 0 180 0 360 0.02
#C 2 theta =0.000000 to 180 deg
#C   q   =0.000000 to 81.568 nm^-1
#C  chi  =0.000000 to 360 deg
#C collumns:
#C  1 position (2theta or chi in degrees)
#C  2 average intensity (sum of all counts in the region divided with number of pixels)
#C  3 Number of pixels in region)
#C  4 error (sum of sqrt(intensity) for all pixels divided by number)
#N 4
#L TTh  Int  N_pix  Err
32.99 	0.032787 	61 	0.032787
33.03 	0.066858 	1391 	0.065174
33.07 	0.065854 	2050 	0.064996
33.11 	0.072509 	2579 	0.071146
33.15 	0.069690 	2999 	0.068127
33.19 	0.072711 	3342 	0.072185
33.23 	0.062447 	3523 	0.061449
33.27 	0.071901 	3630 	0.070287
33.31 	0.063661 	3660 	0.062061
33.35 	0.076611 	3694 	0.075184
33.39 	0.066238 	3729 	0.065295
33.43 	0.064876 	3761 	0.064098
33.47 	0.068720 	3798 	0.067641
33.51 	0.077326 	3815 	0.074998
33.55 	0.069477 	3843 	0.067750
33.59 	0.063402 	3880 	0.061741
33.63 	0.070426 	3919 	0.069230
33.67 	0.067021 	3954 	0.065687
33.71 	0.067421 	3975 	0.066832
33.75 	0.072018 	3999 	0.070969
33.79 	0.058896 	4041 	0.057592
33.83 	0.066914 	4050 	0.065323
33.87 	0.063975 	4111 	0.063405
33.91 	0.059773 	4149 	0.059209
33.95 	0.067209 	4181 	0.066368
33.99 	0.067619 	4200 	0.066085
34.03 	0.066211 	4244 	0.065222
34.07 	0.064433 	4268 	0.063609
34.11 	0.070432 	4302 	0.067959
34.15 	0.068114 	4331 	0.066491
34.19 	0.066942 	4362 	0.065330
34.23 	0.065786 	4393 	0.064720
34.27 	0.067164 	4422 	0.065177
34.31 	0.071332 	4458 	0.070150
34.35 	0.060883 	4484 	0.059425
34.39 	0.057530 	4502 	0.056728
34.43 	0.069619 	4539 	0.068586
34.47 	0.066202 	4592 	0.065437
34.51 	0.061876 	4606 	0.061240
34.55 	0.060952 	4643 	0.060195
34.59 	0.067166 	4675 	0.065286
34.63 	0.058174 	4710 	0.056682
34.67 	0.061590 	4741 	0.059840
34.71 	0.065254 	4766 	0.064516
34.75 	0.060108 	4808 	0.059255
34.79 	0.063847 	4824 	0.062997
34.83 	0.067256 	4862 	0.065449
34.87 	0.062038 	4868 	0.061316
34.91 	0.068005 	4882 	0.066565
34.95 	0.061963 	4890 	0.061005
34.99 	0.065755 	4897 	0.064319
35.03 	0.077079 	4943 	0.075657
35.07 	0.058097 	4940 	0.057030
35.11 	0.064484 	4947 	0.063299
35.15 	0.067450 	4937 	0.066026
35.19 	0.058276 	4942 	0.057683
35.23 	0.064105 	4945 	0.062565
35.27 	0.067098 	4948 	0.065677
35.31 	0.063856 	4933 	0.062549
35.35 	0.062728 	4942 	0.062016
35.39 	0.064307 	4945 	0.063597
35.43 	0.065680 	4933 	0.064611
35.47 	0.070168 	4931 	0.068505
35.51 	0.066382 	4926 	0.064817
35.55 	0.065925 	4945 	0.064148
35.59 	0.055612 	4945 	0.054546
35.63 	0.068784 	4943 	0.067362
35.67 	0.066370 	4942 	0.065422
35.71 	0.067045 	4937 	0.065621
35.75 	0.071791 	4931 	0.069870
35.79 	0.066910 	4932 	0.065485
35.83 	0.066518 	4946 	0.065097
35.87 	0.066829 	4923 	0.065520
35.91 	0.062310 	4927 	0.061359
35.95 	0.068741 	4917 	0.067788
35.99 	0.063171 	4939 	0.062815
36.03 	0.070403 	4943 	0.068980
36.07 	0.069042 	4939 	0.068212
36.11 	0.065531 	4929 	0.063629
36.15 	0.067827 	4939 	0.066997
36.19 	0.068219 	4940 	0.066914
36.23 	0.068085 	4935 	0.067254
36.27 	0.067614 	4925 	0.066544
36.31 	0.071834 	4928 	0.069933
36.35 	0.063705 	4929 	0.062041
36.39 	0.068076 	4921 	0.066528
36.43 	0.064935 	4928 	0.063628
36.47 	0.067666 	4936 	0.066479
36.51 	0.064667 	4933 	0.063479
36.55 	0.062310 	4927 	0.061477
36.59 	0.064386 	4939 	0.063318
36.63 	0.063476 	4931 	0.062169
36.67 	0.070791 	4930 	0.069959
36.71 	0.067060 	4921 	0.066226
36.75 	0.070591 	4944 	0.069880
36.79 	0.068279 	4921 	0.067327
36.83 	0.067955 	4915 	0.066883
36.87 	0.064523 	4944 	0.063575
36.91 	0.067598 	4941 	0.066748
36.95 	0.064464 	4933 	0.062683
36.99 	0.064843 	4935 	0.064131
37.03 	0.070065 	4924 	0.068499
37.07 	0.068693 	4935 	0.066675
37.11 	0.068896 	4935 	0.067115
37.15 	0.064372 	4909 	0.063417
37.19 	0.062132 	4925 	0.061299
37.23 	0.063847 	4918 	0.062021
37.27 	0.063343 	4894 	0.062266
37.31 	0.066059 	4935 	0.064753
37.35 	0.064601 	4938 	0.063771
37.39 	0.062868 	4931 	0.061898
37.43 	0.064477 	4932 	0.063170
37.47 	0.058227 	4929 	0.057038
37.51 	0.060612 	4933 	0.059781
37.55 	0.057809 	4930 	0.057196
37.59 	0.070600 	4915 	0.069508
37.63 	0.062614 	4919 	0.061781
37.67 	0.061786 	4904 	0.060114
37.71 	0.060053 	4929 	0.058864
37.75 	0.063765 	4940 	0.062817
37.79 	0.065314 	4930 	0.064126
37.83 	0.066260 	4920 	0.064712
37.87 	0.063171 	4939 	0.061273
37.91 	0.063692 	4930 	0.062860
37.95 	0.064621 	4921 	0.063193
37.99 	0.063722 	4912 	0.062271
38.03 	0.072112 	4909 	0.071038
38.07 	0.056020 	4909 	0.055304
38.11 	0.059574 	4935 	0.058487
38.15 	0.065474 	4918 	0.063925
38.19 	0.069777 	4930 	0.068826
38.23 	0.074727 	4938 	0.073778
38.27 	0.080933 	4930 	0.078794
38.31 	0.078141 	4927 	0.076219
38.35 	0.083604 	4928 	0.082059
38.39 	0.084742 	4909 	0.082594
38.43 	0.095403 	4916 	0.092543
38.47 	0.090687 	4907 	0.087921
38.51 	0.089213 	4932 	0.087075
38.55 	0.085494 	4936 	0.083596
38.59 	0.079813 	4924 	0.077910
38.63 	0.081844 	4924 	0.079683
38.67 	0.066842 	4937 	0.065893
38.71 	0.074736 	4924 	0.072714
38.75 	0.063122 	4927 	0.061794
38.79 	0.055736 	4934 	0.054311
38.83 	0.060581 	4919 	0.059271
38.87 	0.062513 	4911 	0.061916
38.91 	0.051193 	4903 	0.050476
38.95 	0.053884 	4918 	0.052812
38.99 	0.055904 	4937 	0.054955
39.03 	0.050061 	4934 	0.049705
39.07 	0.054224 	4924 	0.053154
39.11 	0.057798 	4931 	0.056610
39.15 	0.053510 	4915 	0.052517
39.19 	0.052268 	4917 	0.051910
39.23 	0.048934 	4925 	0.047982
39.27 	0.049898 	4910 	0.049302
39.31 	0.047502 	4884 	0.046543
39.35 	0.054306 	4935 	0.053831
39.39 	0.046460 	4929 	0.045984
39.43 	0.055544 	4933 	0.054119
39.47 	0.046923 	4923 	0.046209
39.51 	0.057474 	4924 	0.056760
39.55 	0.050823 	4919 	0.049990
39.59 	0.042345 	4912 	0.042107
39.63 	0.058919 	4922 	0.058205
39.67 	0.053735 	4913 	0.053020
39.71 	0.049847 	4895 	0.049368
39.75 	0.053774 	4928 	0.053299
39.79 	0.052375 	4926 	0.051781
39.83 	0.048845 	4934 	0.048607
39.87 	0.051371 	4925 	0.051133
39.91 	0.054856 	4922 	0.053666
39.95 	0.049644 	4915 	0.048571
39.99 	0.054339 	4932 	0.053389
40.03 	0.054789 	4928 	0.054195
40.07 	0.043673 	4923 	0.043078
40.11 	0.047600 	4916 	0.046646
40.15 	0.053735 	4913 	0.053020
40.19 	0.054575 	4929 	0.053624
40.23 	0.048459 	4932 	0.047746
40.27 	0.052056 	4937 	0.051206
40.31 	0.047176 	4939 	0.046701
40.35 	0.048994 	4919 	0.048636
40.39 	0.050497 	4931 	0.049665
40.43 	0.049573 	4922 	0.049097
40.47 	0.043107 	4918 	0.042273
40.51 	0.045104 	4922 	0.044628
40.55 	0.051752 	4908 	0.050678
40.59 	0.051651 	4937 	0.051413
40.63 	0.045842 	4930 	0.045485
40.67 	0.047851 	4932 	0.046901
40.71 	0.043593 	4932 	0.043474
40.75 	0.045427 	4931 	0.045308
40.79 	0.053615 	4924 	0.052901
40.83 	0.051948 	4928 	0.051235
40.87 	0.051136 	4928 	0.050067
40.91 	0.046516 	4923 	0.045426
40.95 	0.050885 	4913 	0.050051
40.99 	0.038587 	4924 	0.037754
41.03 	0.046483 	4905 	0.045747
41.07 	0.051724 	4930 	0.051011
41.11 	0.045998 	4935 	0.045642
41.15 	0.048978 	4941 	0.048622
41.19 	0.049493 	4930 	0.048780
41.23 	0.046771 	4939 	0.045940
41.27 	0.048874 	4931 	0.047924
41.31 	0.054328 	4933 	0.053141
41.35 	0.044147 	4938 	0.043317
41.39 	0.046827 	4933 	0.046471
41.43 	0.045040 	4929 	0.044564
41.47 	0.044458 	4926 	0.044220
41.51 	0.050000 	4940 	0.048933
41.55 	0.045187 	4935 	0.044238
41.59 	0.046422 	4933 	0.045571
41.63 	0.046375 	4938 	0.045901
41.67 	0.048178 	4940 	0.047348
41.71 	0.046210 	4934 	0.045241
41.75 	0.043619 	4929 	0.043263
41.79 	0.041464 	4944 	0.040872
41.83 	0.048904 	4928 	0.048310
41.87 	0.048835 	4935 	0.047767
41.91 	0.044976 	4936 	0.044738
41.95 	0.050700 	4931 	0.049492
41.99 	0.048930 	4905 	0.047616
42.03 	0.042519 	4939 	0.041807
42.07 	0.045169 	4937 	0.044457
42.11 	0.045905 	4945 	0.045194
42.15 	0.045160 	4938 	0.044685
42.19 	0.042176 	4908 	0.041579
42.23 	0.044971 	4892 	0.044373
42.27 	0.044932 	4874 	0.044692
42.31 	0.038517 	4855 	0.037793
42.35 	0.043613 	4838 	0.043129
42.39 	0.044963 	4804 	0.044353
42.43 	0.043614 	4792 	0.042759
42.47 	0.042183 	4765 	0.041937
42.51 	0.038583 	4743 	0.037945
42.55 	0.043543 	4708 	0.042776
42.59 	0.041869 	4729 	0.041002
42.63 	0.043534 	4709 	0.042767
42.67 	0.048676 	4684 	0.047801
42.71 	0.039888 	4663 	0.039763
42.75 	0.045051 	4617 	0.044543
42.79 	0.043867 	4582 	0.043739
42.83 	0.044312 	4536 	0.043666
42.87 	0.044010 	4499 	0.043619
42.91 	0.038600 	4456 	0.038337
42.95 	0.041440 	4416 	0.041308
42.99 	0.042645 	4385 	0.042245
43.03 	0.043619 	4333 	0.043078
43.07 	0.046788 	4296 	0.046379
43.11 	0.046298 	4255 	0.045748
43.15 	0.039230 	4206 	0.039090
43.19 	0.048402 	4194 	0.047704
43.23 	0.046461 	4154 	0.046038
43.27 	0.041657 	4105 	0.041228
43.31 	0.041677 	4079 	0.041102
43.35 	0.044643 	4032 	0.043771
43.39 	0.042979 	4002 	0.042100
43.43 	0.041919 	3960 	0.041155
43.47 	0.039021 	3921 	0.038871
43.51 	0.042301 	3877 	0.041696
43.55 	0.046896 	2964 	0.046106
43.59 	0.040092 	1746 	0.039421
43.63 	0.033966 	1001 	0.033966
43.67 	0.053785 	502 	0.053785
43.71 	0.079498 	239 	0.077047
43.75 	0.000000 	16 	0.000000