File: Example_Data/25SC_s1_0032.002.dat
#F C:\frames\spec\25SC_s1_0032.002
#C title =s:32 frm:2 25SC_s1
#C wavelength =0.15406

#S 1  fr_average C:\frames\spec\25SC_s1_0032.002 C:\win32app\speccom\mask.axs chi 0 180 0 360 0.02
#C 2 theta =0.000000 to 180 deg
#C   q   =0.000000 to 81.568 nm^-1
#C  chi  =0.000000 to 360 deg
#C collumns:
#C  1 position (2theta or chi in degrees)
#C  2 average intensity (sum of all counts in the region divided with number of pixels)
#C  3 Number of pixels in region)
#C  4 error (sum of sqrt(intensity) for all pixels divided by number)
#N 4
#L TTh  Int  N_pix  Err
32.99 	0.098361 	61 	0.098361
33.03 	0.048167 	1391 	0.047746
33.07 	0.055122 	2050 	0.054265
33.11 	0.061652 	2579 	0.060062
33.15 	0.055018 	2999 	0.054432
33.19 	0.063136 	3342 	0.062610
33.23 	0.057905 	3523 	0.056908
33.27 	0.066667 	3630 	0.065214
33.31 	0.053552 	3660 	0.052912
33.35 	0.057120 	3694 	0.056010
33.39 	0.050147 	3729 	0.049519
33.43 	0.059559 	3761 	0.058313
33.47 	0.059505 	3798 	0.058271
33.51 	0.064220 	3815 	0.063299
33.55 	0.055686 	3843 	0.055381
33.59 	0.051289 	3880 	0.050685
33.63 	0.058688 	3919 	0.056446
33.67 	0.056146 	3954 	0.054960
33.71 	0.061132 	3975 	0.059806
33.75 	0.056014 	3999 	0.055135
33.79 	0.063103 	4041 	0.061944
33.83 	0.063457 	4050 	0.062300
33.87 	0.056677 	4111 	0.056250
33.91 	0.058327 	4149 	0.057175
33.95 	0.056685 	4181 	0.055564
33.99 	0.057143 	4200 	0.056306
34.03 	0.058435 	4244 	0.057055
34.07 	0.062793 	4268 	0.061398
34.11 	0.060902 	4302 	0.060357
34.15 	0.062341 	4331 	0.061665
34.19 	0.051582 	4362 	0.050910
34.23 	0.063282 	4393 	0.061682
34.27 	0.059249 	4422 	0.057903
34.31 	0.058995 	4458 	0.058338
34.35 	0.057315 	4484 	0.056270
34.39 	0.055087 	4502 	0.054046
34.43 	0.058603 	4539 	0.057571
34.47 	0.062718 	4592 	0.061315
34.51 	0.062310 	4606 	0.060911
34.55 	0.062029 	4643 	0.061650
34.59 	0.059893 	4675 	0.059141
34.63 	0.053928 	4710 	0.053306
34.67 	0.059692 	4741 	0.058827
34.71 	0.056022 	4766 	0.055161
34.75 	0.054700 	4808 	0.053117
34.79 	0.060531 	4824 	0.059681
34.83 	0.058824 	4862 	0.058101
34.87 	0.059367 	4868 	0.058405
34.91 	0.055920 	4882 	0.054840
34.95 	0.062986 	4890 	0.061908
34.99 	0.056769 	4897 	0.054975
35.03 	0.062715 	4943 	0.062004
35.07 	0.053239 	4940 	0.052290
35.11 	0.059632 	4947 	0.058566
35.15 	0.060766 	4937 	0.060054
35.19 	0.054431 	4942 	0.053957
35.23 	0.052781 	4945 	0.051951
35.27 	0.061237 	4948 	0.059935
35.31 	0.054936 	4933 	0.053867
35.35 	0.053015 	4942 	0.052185
35.39 	0.058443 	4945 	0.058087
35.43 	0.052909 	4933 	0.052434
35.47 	0.056378 	4931 	0.055784
35.51 	0.058871 	4926 	0.058019
35.55 	0.053185 	4945 	0.052711
35.59 	0.057432 	4945 	0.056366
35.63 	0.056443 	4943 	0.055851
35.67 	0.057669 	4942 	0.057313
35.71 	0.056309 	4937 	0.055479
35.75 	0.053133 	4931 	0.052064
35.79 	0.059611 	4932 	0.058779
35.83 	0.061059 	4946 	0.060230
35.87 	0.056063 	4923 	0.055587
35.91 	0.053379 	4927 	0.052428
35.95 	0.067724 	4917 	0.066175
35.99 	0.055882 	4939 	0.055052
36.03 	0.056241 	4943 	0.056004
36.07 	0.062968 	4939 	0.061426
36.11 	0.063299 	4929 	0.061992
36.15 	0.054667 	4939 	0.053125
36.19 	0.051012 	4940 	0.049945
36.23 	0.056940 	4935 	0.055516
36.27 	0.057665 	4925 	0.057189
36.31 	0.053369 	4928 	0.053250
36.35 	0.059038 	4929 	0.058444
36.39 	0.056899 	4921 	0.056423
36.43 	0.053571 	4928 	0.052502
36.47 	0.061791 	4936 	0.060960
36.51 	0.054125 	4933 	0.053175
36.55 	0.052162 	4927 	0.051805
36.59 	0.055072 	4939 	0.053767
36.63 	0.051105 	4931 	0.050749
36.67 	0.064097 	4930 	0.063266
36.71 	0.050599 	4921 	0.050004
36.75 	0.052994 	4944 	0.052401
36.79 	0.062386 	4921 	0.061533
36.83 	0.055341 	4915 	0.054368
36.87 	0.055825 	4944 	0.054759
36.91 	0.060109 	4941 	0.059398
36.95 	0.054936 	4933 	0.053630
36.99 	0.052077 	4935 	0.051602
37.03 	0.048132 	4924 	0.047537
37.07 	0.057953 	4935 	0.056766
37.11 	0.057345 	4935 	0.056139
37.15 	0.053371 	4909 	0.052775
37.19 	0.049543 	4925 	0.048829
37.23 	0.054290 	4918 	0.053199
37.27 	0.053331 	4894 	0.052493
37.31 	0.051064 	4935 	0.050945
37.35 	0.055488 	4938 	0.054658
37.39 	0.060637 	4931 	0.058974
37.43 	0.051906 	4932 	0.051075
37.47 	0.051329 	4929 	0.050616
37.51 	0.055342 	4933 	0.054610
37.55 	0.053144 	4930 	0.052075
37.59 	0.053103 	4915 	0.052268
37.63 	0.055092 	4919 	0.054001
37.67 	0.054649 	4904 	0.053793
37.71 	0.052546 	4929 	0.051001
37.75 	0.047773 	4940 	0.047299
37.79 	0.054767 	4930 	0.053579
37.83 	0.051220 	4920 	0.050386
37.87 	0.055477 	4939 	0.054884
37.91 	0.051318 	4930 	0.050487
37.95 	0.055477 	4921 	0.054881
37.99 	0.052932 	4912 	0.051839
38.03 	0.050519 	4909 	0.049565
38.07 	0.055612 	4909 	0.054777
38.11 	0.054306 	4935 	0.053712
38.15 	0.048800 	4918 	0.047967
38.19 	0.059838 	4930 	0.059006
38.23 	0.056298 	4938 	0.055092
38.27 	0.062069 	4930 	0.060881
38.31 	0.056830 	4927 	0.055997
38.35 	0.058036 	4928 	0.057323
38.39 	0.056631 	4909 	0.055437
38.43 	0.060822 	4916 	0.060464
38.47 	0.068270 	4907 	0.066599
38.51 	0.071979 	4932 	0.070059
38.55 	0.066045 	4936 	0.064859
38.59 	0.059504 	4924 	0.058315
38.63 	0.064582 	4924 	0.063253
38.67 	0.056512 	4937 	0.056156
38.71 	0.053006 	4924 	0.052530
38.75 	0.053988 	4927 	0.053156
38.79 	0.052088 	4934 	0.051375
38.83 	0.054279 	4919 	0.053565
38.87 	0.053146 	4911 	0.052072
38.91 	0.051193 	4903 	0.050357
38.95 	0.051647 	4918 	0.050794
38.99 	0.050435 	4937 	0.049724
39.03 	0.046615 	4934 	0.046259
39.07 	0.047725 	4924 	0.046893
39.11 	0.046035 	4931 	0.045323
39.15 	0.046796 	4915 	0.045842
39.19 	0.050641 	4917 	0.049688
39.23 	0.047310 	4925 	0.046834
39.27 	0.044603 	4910 	0.044006
39.31 	0.040541 	4884 	0.040061
39.35 	0.050861 	4935 	0.050011
39.39 	0.046865 	4929 	0.046271
39.43 	0.044395 	4933 	0.044039
39.47 	0.043876 	4923 	0.043023
39.51 	0.046913 	4924 	0.046675
39.55 	0.049197 	4919 	0.048840
39.59 	0.050081 	4912 	0.049604
39.63 	0.047338 	4922 	0.046981
39.67 	0.048036 	4913 	0.047082
39.71 	0.044944 	4895 	0.044345
39.75 	0.048498 	4928 	0.047785
39.79 	0.049736 	4926 	0.048666
39.83 	0.048642 	4934 	0.047811
39.87 	0.042234 	4925 	0.041877
39.91 	0.043681 	4922 	0.043086
39.95 	0.050458 	4915 	0.049981
39.99 	0.040349 	4932 	0.039399
40.03 	0.042817 	4928 	0.042341
40.07 	0.046313 	4923 	0.045123
40.11 	0.041904 	4916 	0.041666
40.15 	0.049257 	4913 	0.047588
40.19 	0.045040 	4929 	0.044445
40.23 	0.038929 	4932 	0.038811
40.27 	0.038687 	4937 	0.038213
40.31 	0.039077 	4939 	0.038602
40.35 	0.046554 	4919 	0.046197
40.39 	0.037721 	4931 	0.037483
40.43 	0.036774 	4922 	0.036298
40.47 	0.045750 	4918 	0.044678
40.51 	0.044291 	4922 	0.043458
40.55 	0.040139 	4908 	0.039900
40.59 	0.045574 	4937 	0.045100
40.63 	0.040974 	4930 	0.040617
40.67 	0.041971 	4932 	0.041377
40.71 	0.038727 	4932 	0.038252
40.75 	0.044210 	4931 	0.043854
40.79 	0.041836 	4924 	0.041003
40.83 	0.043425 	4928 	0.042831
40.87 	0.040990 	4928 	0.040753
40.91 	0.042860 	4923 	0.042503
40.95 	0.041522 	4913 	0.041046
40.99 	0.040820 	4924 	0.040226
41.03 	0.036290 	4905 	0.035812
41.07 	0.037931 	4930 	0.037575
41.11 	0.040932 	4935 	0.040457
41.15 	0.048776 	4941 	0.047946
41.19 	0.040568 	4930 	0.040093
41.23 	0.040494 	4939 	0.039782
41.27 	0.043805 	4931 	0.042973
41.31 	0.040341 	4933 	0.039866
41.35 	0.043742 	4938 	0.042793
41.39 	0.044598 	4933 	0.044004
41.43 	0.040982 	4929 	0.040863
41.47 	0.042631 	4926 	0.042274
41.51 	0.040688 	4940 	0.040451
41.55 	0.040324 	4935 	0.040087
41.59 	0.042773 	4933 	0.042179
41.63 	0.043135 	4938 	0.042779
41.67 	0.040486 	4940 	0.039656
41.71 	0.042359 	4934 	0.041647
41.75 	0.040170 	4929 	0.039814
41.79 	0.039239 	4944 	0.038766
41.83 	0.037946 	4928 	0.037828
41.87 	0.041945 	4935 	0.041214
41.91 	0.042139 	4936 	0.041546
41.95 	0.040357 	4931 	0.040119
41.99 	0.043221 	4905 	0.042744
42.03 	0.042519 	4939 	0.041926
42.07 	0.040916 	4937 	0.039848
42.11 	0.039636 	4945 	0.039518
42.15 	0.039490 	4938 	0.039252
42.19 	0.037897 	4908 	0.037181
42.23 	0.037817 	4892 	0.037338
42.27 	0.041444 	4874 	0.041204
42.31 	0.042636 	4855 	0.042395
42.35 	0.035965 	4838 	0.035602
42.39 	0.037052 	4804 	0.036931
42.43 	0.041319 	4792 	0.040830
42.47 	0.040504 	4765 	0.040381
42.51 	0.032680 	4743 	0.032556
42.55 	0.041631 	4708 	0.041382
42.59 	0.039966 	4729 	0.039347
42.63 	0.040985 	4709 	0.040612
42.67 	0.036080 	4684 	0.035705
42.71 	0.037744 	4663 	0.037241
42.75 	0.037470 	4617 	0.037090
42.79 	0.038411 	4582 	0.038028
42.83 	0.036596 	4536 	0.036209
42.87 	0.040453 	4499 	0.039933
42.91 	0.039722 	4456 	0.039459
42.95 	0.044384 	4416 	0.043986
42.99 	0.045154 	4385 	0.044620
43.03 	0.037157 	4333 	0.036751
43.07 	0.039572 	4296 	0.038481
43.11 	0.040423 	4255 	0.039459
43.15 	0.032097 	4206 	0.031679
43.19 	0.040773 	4194 	0.040354
43.23 	0.040202 	4154 	0.039215
43.27 	0.035323 	4105 	0.034752
43.31 	0.037509 	4079 	0.036791
43.35 	0.035466 	4032 	0.034595
43.39 	0.031484 	4002 	0.031338
43.43 	0.039394 	3960 	0.039246
43.47 	0.038001 	3921 	0.037851
43.51 	0.034305 	3877 	0.033549
43.55 	0.039136 	2964 	0.038543
43.59 	0.040092 	1746 	0.039085
43.63 	0.030969 	1001 	0.030969
43.67 	0.041833 	502 	0.039499
43.71 	0.025105 	239 	0.025105
43.75 	0.125000 	16 	0.125000