File: Example_Data/25SC_s1_0005.003.dat
#F C:\frames\spec\25SC_s1_0005.003
#C title =s:5 frm:3 25SC_s1
#C wavelength =0.15406

#S 1  fr_average C:\frames\spec\25SC_s1_0005.003 C:\win32app\speccom\mask.axs chi 0 180 0 360 0.02
#C 2 theta =0.000000 to 180 deg
#C   q   =0.000000 to 81.568 nm^-1
#C  chi  =0.000000 to 360 deg
#C collumns:
#C  1 position (2theta or chi in degrees)
#C  2 average intensity (sum of all counts in the region divided with number of pixels)
#C  3 Number of pixels in region)
#C  4 error (sum of sqrt(intensity) for all pixels divided by number)
#N 4
#L TTh  Int  N_pix  Err
32.99 	0.032787 	61 	0.032787
33.03 	0.056075 	1391 	0.054811
33.07 	0.060488 	2050 	0.059631
33.11 	0.052734 	2579 	0.051598
33.15 	0.059687 	2999 	0.058710
33.19 	0.058348 	3342 	0.057121
33.23 	0.050809 	3523 	0.050144
33.27 	0.062259 	3630 	0.061291
33.31 	0.064754 	3660 	0.063634
33.35 	0.064158 	3694 	0.062097
33.39 	0.065969 	3729 	0.065027
33.43 	0.055836 	3761 	0.055057
33.47 	0.055292 	3798 	0.054675
33.51 	0.061861 	3815 	0.061554
33.55 	0.061150 	3843 	0.059473
33.59 	0.061340 	3880 	0.059981
33.63 	0.057157 	3919 	0.056410
33.67 	0.056146 	3954 	0.055257
33.71 	0.060126 	3975 	0.058652
33.75 	0.059015 	3999 	0.058136
33.79 	0.059144 	4041 	0.056946
33.83 	0.060741 	4050 	0.059728
33.87 	0.058866 	4111 	0.058012
33.91 	0.059050 	4149 	0.057921
33.95 	0.065535 	4181 	0.063830
33.99 	0.064762 	4200 	0.063367
34.03 	0.061027 	4244 	0.060613
34.07 	0.063261 	4268 	0.061592
34.11 	0.059972 	4302 	0.059019
34.15 	0.058416 	4331 	0.057605
34.19 	0.058230 	4362 	0.057022
34.23 	0.061234 	4393 	0.060034
34.27 	0.064903 	4422 	0.063446
34.31 	0.055630 	4458 	0.054973
34.35 	0.058653 	4484 	0.057848
34.39 	0.060862 	4502 	0.059561
34.43 	0.064552 	4539 	0.063261
34.47 	0.052047 	4592 	0.051027
34.51 	0.059922 	4606 	0.059286
34.55 	0.059660 	4643 	0.058398
34.59 	0.059037 	4675 	0.058286
34.63 	0.060722 	4710 	0.060224
34.67 	0.057794 	4741 	0.056291
34.71 	0.063366 	4766 	0.062505
34.75 	0.052205 	4808 	0.051352
34.79 	0.057214 	4824 	0.056000
34.83 	0.061086 	4862 	0.060002
34.87 	0.062859 	4868 	0.062017
34.91 	0.062270 	4882 	0.061070
34.95 	0.065235 	4890 	0.064397
34.99 	0.073923 	4897 	0.073085
35.03 	0.062513 	4943 	0.061565
35.07 	0.055870 	4940 	0.054784
35.11 	0.065090 	4947 	0.063551
35.15 	0.059348 	4937 	0.058399
35.19 	0.060299 	4942 	0.059351
35.23 	0.060667 	4945 	0.059601
35.27 	0.060833 	4948 	0.059412
35.31 	0.060207 	4933 	0.059376
35.35 	0.063132 	4942 	0.062658
35.39 	0.059858 	4945 	0.058792
35.43 	0.055342 	4933 	0.053560
35.47 	0.061854 	4931 	0.060784
35.51 	0.053593 	4926 	0.052880
35.55 	0.064914 	4945 	0.063611
35.59 	0.053589 	4945 	0.052741
35.63 	0.054825 	4943 	0.054114
35.67 	0.061109 	4942 	0.059805
35.71 	0.058740 	4937 	0.058147
35.75 	0.063679 	4931 	0.062847
35.79 	0.062044 	4932 	0.061331
35.83 	0.059038 	4946 	0.058327
35.87 	0.057892 	4923 	0.057059
35.91 	0.058453 	4927 	0.057740
35.95 	0.064267 	4917 	0.063075
35.99 	0.057502 	4939 	0.056553
36.03 	0.062108 	4943 	0.060212
36.07 	0.060336 	4939 	0.059269
36.11 	0.061270 	4929 	0.060200
36.15 	0.059526 	4939 	0.058933
36.19 	0.056478 	4940 	0.055055
36.23 	0.060790 	4935 	0.059247
36.27 	0.064975 	4925 	0.064023
36.31 	0.061485 	4928 	0.060772
36.35 	0.061676 	4929 	0.060963
36.39 	0.056899 	4921 	0.056165
36.43 	0.061080 	4928 	0.060129
36.47 	0.055511 	4936 	0.055155
36.51 	0.054531 	4933 	0.053581
36.55 	0.056424 	4927 	0.055829
36.59 	0.051630 	4939 	0.050918
36.63 	0.058609 	4931 	0.057896
36.67 	0.058418 	4930 	0.057467
36.71 	0.052022 	4921 	0.050812
36.75 	0.060275 	4944 	0.058952
36.79 	0.054867 	4921 	0.054272
36.83 	0.056765 	4915 	0.055931
36.87 	0.058050 	4944 	0.057458
36.91 	0.061526 	4941 	0.060558
36.95 	0.067707 	4933 	0.067232
36.99 	0.063627 	4935 	0.062796
37.03 	0.055849 	4924 	0.055492
37.07 	0.061803 	4935 	0.060379
37.11 	0.048227 	4935 	0.047396
37.15 	0.056020 	4909 	0.055065
37.19 	0.060102 	4925 	0.059388
37.23 	0.057137 	4918 	0.056165
37.27 	0.057009 	4894 	0.055692
37.31 	0.055724 	4935 	0.054419
37.35 	0.055488 	4938 	0.054776
37.39 	0.051916 	4931 	0.050847
37.43 	0.058394 	4932 	0.057563
37.47 	0.056807 	4929 	0.055381
37.51 	0.060004 	4933 	0.059054
37.55 	0.051927 	4930 	0.051333
37.59 	0.058189 	4915 	0.056997
37.63 	0.054483 	4919 	0.053887
37.67 	0.057708 	4904 	0.056991
37.71 	0.055386 	4929 	0.054555
37.75 	0.056275 	4940 	0.055208
37.79 	0.058215 	4930 	0.056789
37.83 	0.053659 	4920 	0.052587
37.87 	0.057097 	4939 	0.056148
37.91 	0.055578 	4930 	0.054628
37.95 	0.048364 	4921 	0.047531
37.99 	0.057410 	4912 	0.055860
38.03 	0.050112 	4909 	0.049237
38.07 	0.046649 	4909 	0.046172
38.11 	0.056332 	4935 	0.055739
38.15 	0.061407 	4918 	0.060077
38.19 	0.063286 	4930 	0.062811
38.23 	0.057108 	4938 	0.056396
38.27 	0.060446 	4930 	0.058882
38.31 	0.060280 	4927 	0.059805
38.35 	0.061688 	4928 	0.059767
38.39 	0.065186 	4909 	0.063735
38.43 	0.065907 	4916 	0.065073
38.47 	0.064194 	4907 	0.063597
38.51 	0.060624 	4932 	0.059556
38.55 	0.069692 	4936 	0.068486
38.59 	0.055037 	4924 	0.054323
38.63 	0.061535 	4924 	0.060227
38.67 	0.056309 	4937 	0.054886
38.71 	0.062551 	4924 	0.061461
38.75 	0.056627 	4927 	0.056151
38.79 	0.050872 	4934 	0.050040
38.83 	0.055702 	4919 	0.054492
38.87 	0.053960 	4911 	0.052152
38.91 	0.053029 	4903 	0.051953
38.95 	0.051240 	4918 	0.050168
38.99 	0.052664 	4937 	0.051458
39.03 	0.049858 	4934 	0.049502
39.07 	0.054833 	4924 	0.054120
39.11 	0.051308 	4931 	0.050714
39.15 	0.051475 	4915 	0.050283
39.19 	0.051047 	4917 	0.050571
39.23 	0.041827 	4925 	0.041590
39.27 	0.049695 	4910 	0.049098
39.31 	0.047297 	4884 	0.046818
39.35 	0.048632 	4935 	0.048019
39.39 	0.054575 	4929 	0.053624
39.43 	0.052098 	4933 	0.051623
39.47 	0.047329 	4923 	0.046377
39.51 	0.043258 	4924 	0.042901
39.55 	0.050620 	4919 	0.050144
39.59 	0.048656 	4912 	0.047822
39.63 	0.048151 	4922 	0.047437
39.67 	0.044983 	4913 	0.044387
39.71 	0.054750 	4895 	0.053673
39.75 	0.046672 	4928 	0.046197
39.79 	0.051360 	4926 	0.050647
39.83 	0.045805 	4934 	0.045092
39.87 	0.051371 	4925 	0.050895
39.91 	0.046729 	4922 	0.046134
39.95 	0.055341 	4915 	0.054387
39.99 	0.046634 	4932 	0.045565
40.03 	0.042614 	4928 	0.042376
40.07 	0.052610 	4923 	0.052015
40.11 	0.046583 	4916 	0.045868
40.15 	0.048850 	4913 	0.048373
40.19 	0.040982 	4929 	0.040269
40.23 	0.039538 	4932 	0.038944
40.27 	0.042739 	4937 	0.041908
40.31 	0.049200 	4939 	0.048607
40.35 	0.044928 	4919 	0.044094
40.39 	0.047049 	4931 	0.046337
40.43 	0.047135 	4922 	0.046540
40.47 	0.047784 	4918 	0.047307
40.51 	0.052011 	4922 	0.050583
40.55 	0.044621 	4908 	0.044144
40.59 	0.042941 	4937 	0.042091
40.63 	0.047667 	4930 	0.046954
40.67 	0.047648 	4932 	0.047054
40.71 	0.045418 	4932 	0.044586
40.75 	0.049888 	4931 	0.049651
40.79 	0.051178 	4924 	0.050107
40.83 	0.048093 	4928 	0.047498
40.87 	0.044643 	4928 	0.044286
40.91 	0.045094 	4923 	0.044500
40.95 	0.048239 	4913 	0.047524
40.99 	0.046304 	4924 	0.044995
41.03 	0.045464 	4905 	0.044747
41.07 	0.049087 	4930 	0.048374
41.11 	0.038906 	4935 	0.038550
41.15 	0.043918 	4941 	0.043444
41.19 	0.046856 	4930 	0.046500
41.23 	0.047580 	4939 	0.047106
41.27 	0.041979 	4931 	0.041623
41.31 	0.046422 	4933 	0.045710
41.35 	0.046983 	4938 	0.046389
41.39 	0.049666 	4933 	0.048716
41.43 	0.050112 	4929 	0.049755
41.47 	0.043240 	4926 	0.042645
41.51 	0.044939 	4940 	0.044465
41.55 	0.047416 	4935 	0.046942
41.59 	0.046422 	4933 	0.045334
41.63 	0.044350 	4938 	0.043638
41.67 	0.047368 	4940 	0.046657
41.71 	0.043373 	4934 	0.042779
41.75 	0.046663 	4929 	0.046425
41.79 	0.044903 	4944 	0.044547
41.83 	0.045455 	4928 	0.045217
41.87 	0.046809 	4935 	0.046334
41.91 	0.042545 	4936 	0.042070
41.95 	0.046846 	4931 	0.046134
41.99 	0.042406 	4905 	0.041928
42.03 	0.047176 	4939 	0.046583
42.07 	0.046587 	4937 	0.046350
42.11 	0.044287 	4945 	0.043576
42.15 	0.042730 	4938 	0.042018
42.19 	0.040750 	4908 	0.040153
42.23 	0.038226 	4892 	0.037866
42.27 	0.044112 	4874 	0.043631
42.31 	0.041195 	4855 	0.040712
42.35 	0.041133 	4838 	0.040406
42.39 	0.045171 	4804 	0.044683
42.43 	0.045075 	4792 	0.044708
42.47 	0.044911 	4765 	0.044173
42.51 	0.042800 	4743 	0.042059
42.55 	0.045030 	4708 	0.044283
42.59 	0.042715 	4729 	0.041828
42.63 	0.044383 	4709 	0.043710
42.67 	0.042485 	4684 	0.041714
42.71 	0.036886 	4663 	0.036635
42.75 	0.042235 	4617 	0.042235
42.79 	0.044740 	4582 	0.044357
42.83 	0.041887 	4536 	0.040854
42.87 	0.043121 	4499 	0.042600
42.91 	0.048025 	4456 	0.047631
42.95 	0.044384 	4416 	0.043721
42.99 	0.041505 	4385 	0.040436
43.03 	0.044080 	4333 	0.043404
43.07 	0.041201 	4296 	0.041065
43.11 	0.039483 	4255 	0.039208
43.15 	0.045174 	4206 	0.044616
43.19 	0.043872 	4194 	0.043314
43.23 	0.037313 	4154 	0.037172
43.27 	0.045311 	4105 	0.044597
43.31 	0.041677 	4079 	0.041102
43.35 	0.047867 	4032 	0.047286
43.39 	0.036982 	4002 	0.036542
43.43 	0.037879 	3960 	0.037731
43.47 	0.043356 	3921 	0.042759
43.51 	0.047459 	3877 	0.047157
43.55 	0.045209 	2964 	0.044419
43.59 	0.052119 	1746 	0.051784
43.63 	0.033966 	1001 	0.032796
43.67 	0.049801 	502 	0.048634
43.71 	0.025105 	239 	0.025105
43.75 	0.062500 	16 	0.062500