File: Example_Data/25SC_s1_0052.008.dat
#F C:\frames\spec\25SC_s1_0052.008
#C title =s:52 frm:8 25SC_s1
#C wavelength =0.15406

#S 1  fr_average C:\frames\spec\25SC_s1_0052.008 C:\win32app\speccom\mask.axs chi 0 180 0 360 0.02
#C 2 theta =0.000000 to 180 deg
#C   q   =0.000000 to 81.568 nm^-1
#C  chi  =0.000000 to 360 deg
#C collumns:
#C  1 position (2theta or chi in degrees)
#C  2 average intensity (sum of all counts in the region divided with number of pixels)
#C  3 Number of pixels in region)
#C  4 error (sum of sqrt(intensity) for all pixels divided by number)
#N 4
#L TTh  Int  N_pix  Err
32.99 	0.049180 	61 	0.049180
33.03 	0.076923 	1391 	0.076081
33.07 	0.072683 	2050 	0.071207
33.11 	0.074060 	2579 	0.072432
33.15 	0.077359 	2999 	0.075406
33.19 	0.066427 	3342 	0.065025
33.23 	0.070111 	3523 	0.068254
33.27 	0.069421 	3630 	0.067969
33.31 	0.070492 	3660 	0.069211
33.35 	0.072821 	3694 	0.071368
33.39 	0.070260 	3729 	0.068689
33.43 	0.061154 	3761 	0.060531
33.47 	0.069774 	3798 	0.068540
33.51 	0.071035 	3815 	0.069961
33.55 	0.076763 	3843 	0.074629
33.59 	0.067010 	3880 	0.065803
33.63 	0.073233 	3919 	0.072187
33.67 	0.063227 	3954 	0.062635
33.71 	0.071195 	3975 	0.069869
33.75 	0.072768 	3999 	0.071157
33.79 	0.071764 	4041 	0.070581
33.83 	0.066173 	4050 	0.064992
33.87 	0.067867 	4111 	0.066727
33.91 	0.066281 	4149 	0.065575
33.95 	0.066970 	4181 	0.065686
33.99 	0.070476 	4200 	0.068663
34.03 	0.068803 	4244 	0.066986
34.07 	0.066542 	4268 	0.065169
34.11 	0.068805 	4302 	0.067013
34.15 	0.060263 	4331 	0.059046
34.19 	0.073590 	4362 	0.072091
34.23 	0.066697 	4393 	0.065764
34.27 	0.069426 	4422 	0.068609
34.31 	0.073800 	4458 	0.071829
34.35 	0.072703 	4484 	0.071266
34.39 	0.064194 	4502 	0.063153
34.43 	0.077991 	4539 	0.076271
34.47 	0.065331 	4592 	0.063418
34.51 	0.071211 	4606 	0.069177
34.55 	0.079259 	4643 	0.077114
34.59 	0.066524 	4675 	0.065752
34.63 	0.068577 	4710 	0.067209
34.67 	0.070027 	4741 	0.068010
34.71 	0.079731 	4766 	0.078871
34.75 	0.070092 	4808 	0.068995
34.79 	0.068201 	4824 	0.066986
34.83 	0.068696 	4862 	0.067592
34.87 	0.072309 	4868 	0.070865
34.91 	0.068824 	4882 	0.067984
34.95 	0.074847 	4890 	0.072930
34.99 	0.069839 	4897 	0.068164
35.03 	0.067773 	4943 	0.066588
35.07 	0.077733 	4940 	0.076547
35.11 	0.066909 	4947 	0.066317
35.15 	0.070286 	4937 	0.069080
35.19 	0.076083 	4942 	0.074285
35.23 	0.068959 	4945 	0.067162
35.27 	0.068917 	4948 	0.068443
35.31 	0.073181 	4933 	0.071499
35.35 	0.070012 	4942 	0.069064
35.39 	0.069161 	4945 	0.067976
35.43 	0.071964 	4933 	0.070777
35.47 	0.066924 	4931 	0.065617
35.51 	0.063743 	4926 	0.062673
35.55 	0.064105 	4945 	0.062802
35.59 	0.064105 	4945 	0.062802
35.63 	0.071414 	4943 	0.070466
35.67 	0.068393 	4942 	0.066971
35.71 	0.068058 	4937 	0.066752
35.75 	0.075644 	4931 	0.073506
35.79 	0.064071 	4932 	0.063478
35.83 	0.065305 	4946 	0.063490
35.87 	0.069876 	4923 	0.068924
35.91 	0.068196 	4927 	0.066769
35.95 	0.065284 	4917 	0.063258
35.99 	0.067423 	4939 	0.065861
36.03 	0.063120 	4943 	0.062290
36.07 	0.062361 	4939 	0.061531
36.11 	0.058633 	4929 	0.057801
36.15 	0.073294 	4939 	0.071397
36.19 	0.070850 	4940 	0.069546
36.23 	0.070111 	4935 	0.068568
36.27 	0.075939 	4925 	0.074393
36.31 	0.064529 	4928 	0.063697
36.35 	0.063705 	4929 	0.062635
36.39 	0.070311 	4921 	0.069478
36.43 	0.065341 	4928 	0.064271
36.47 	0.061994 	4936 	0.061637
36.51 	0.069126 	4933 	0.067820
36.55 	0.069008 	4927 	0.067462
36.59 	0.065398 	4939 	0.063856
36.63 	0.061042 	4931 	0.059854
36.67 	0.070588 	4930 	0.069519
36.71 	0.069295 	4921 	0.067490
36.75 	0.066748 	4944 	0.065444
36.79 	0.073562 	4921 	0.071896
36.83 	0.067752 	4915 	0.066322
36.87 	0.067354 	4944 	0.066406
36.91 	0.074074 	4941 	0.072889
36.95 	0.062234 	4933 	0.061046
36.99 	0.063222 	4935 	0.061441
37.03 	0.063972 	4924 	0.062307
37.07 	0.069098 	4935 	0.067436
37.11 	0.063222 	4935 	0.062272
37.15 	0.070890 	4909 	0.068981
37.19 	0.060508 	4925 	0.059080
37.23 	0.062017 	4918 	0.061064
37.27 	0.063547 	4894 	0.062311
37.31 	0.064640 	4935 	0.063453
37.35 	0.068651 	4938 	0.066990
37.39 	0.059826 	4931 	0.058756
37.43 	0.062044 	4932 	0.061331
37.47 	0.065936 	4929 	0.064391
37.51 	0.066491 	4933 	0.065066
37.55 	0.064503 	4930 	0.063315
37.59 	0.068159 	4915 	0.067086
37.63 	0.062004 	4919 	0.060695
37.67 	0.068108 	4904 	0.066316
37.71 	0.066139 	4929 	0.064931
37.75 	0.062348 	4940 	0.061143
37.79 	0.060041 	4930 	0.058971
37.83 	0.064837 	4920 	0.063389
37.87 	0.063778 	4939 	0.062948
37.91 	0.060446 	4930 	0.059496
37.95 	0.062792 	4921 	0.061245
37.99 	0.064943 	4912 	0.064108
38.03 	0.066816 	4909 	0.065503
38.07 	0.060705 	4909 	0.059492
38.11 	0.063019 	4935 	0.062426
38.15 	0.069337 	4918 	0.067670
38.19 	0.068154 	4930 	0.066966
38.23 	0.061766 	4938 	0.060698
38.27 	0.068763 	4930 	0.066980
38.31 	0.057439 	4927 	0.056725
38.35 	0.075893 	4928 	0.074466
38.39 	0.067835 	4909 	0.066522
38.43 	0.067941 	4916 	0.066392
38.47 	0.071327 	4907 	0.069775
38.51 	0.076440 	4932 	0.074995
38.55 	0.068071 	4936 	0.067241
38.59 	0.068643 	4924 	0.067434
38.63 	0.071893 	4924 	0.069751
38.67 	0.073932 	4937 	0.072745
38.71 	0.068846 	4924 	0.067538
38.75 	0.071849 	4927 	0.070779
38.79 	0.062019 	4934 	0.061306
38.83 	0.060988 	4919 	0.059916
38.87 	0.065567 	4911 	0.064613
38.91 	0.062003 	4903 	0.060928
38.95 	0.064864 	4918 	0.063792
38.99 	0.059955 	4937 	0.059006
39.03 	0.058573 	4934 	0.057742
39.07 	0.064379 	4924 	0.063308
39.11 	0.060028 	4931 	0.059553
39.15 	0.056968 	4915 	0.055896
39.19 	0.064267 	4917 	0.062480
39.23 	0.060102 	4925 	0.058674
39.27 	0.060896 	4910 	0.059206
39.31 	0.061835 	4884 	0.061115
39.35 	0.059574 	4935 	0.058506
39.39 	0.060864 	4929 	0.059795
39.43 	0.064869 	4933 	0.063801
39.47 	0.056673 	4923 	0.055840
39.51 	0.067019 	4924 	0.064957
39.55 	0.065054 	4919 	0.064101
39.59 	0.057818 	4912 	0.057102
39.63 	0.062373 	4922 	0.061421
39.67 	0.060045 	4913 	0.058972
39.71 	0.057406 	4895 	0.056209
39.75 	0.058847 	4928 	0.058015
39.79 	0.054811 	4926 	0.054098
39.83 	0.064856 	4934 	0.063431
39.87 	0.065178 	4925 	0.064107
39.91 	0.060748 	4922 	0.059439
39.95 	0.059817 	4915 	0.058744
39.99 	0.060016 	4932 	0.059304
40.03 	0.052760 	4928 	0.051928
40.07 	0.057485 	4923 	0.056771
40.11 	0.063873 	4916 	0.063039
40.15 	0.061470 	4913 	0.060277
40.19 	0.053966 	4929 	0.052639
40.23 	0.060624 	4932 	0.058962
40.27 	0.068260 	4937 	0.066480
40.31 	0.063171 	4939 	0.062103
40.35 	0.055092 	4919 	0.054120
40.39 	0.062259 	4931 	0.060952
40.43 	0.059935 	4922 	0.058864
40.47 	0.054900 	4918 	0.054067
40.51 	0.061154 	4922 	0.060202
40.55 	0.058272 	4908 	0.056820
40.59 	0.062184 	4937 	0.060285
40.63 	0.051521 	4930 	0.050927
40.67 	0.052920 	4932 	0.052207
40.71 	0.054542 	4932 	0.053948
40.75 	0.054553 	4931 	0.053484
40.79 	0.053615 	4924 	0.052663
40.83 	0.061688 	4928 	0.060480
40.87 	0.057833 	4928 	0.056525
40.91 	0.061345 	4923 	0.060988
40.95 	0.058213 	4913 	0.057239
40.99 	0.061942 	4924 	0.060970
41.03 	0.057288 	4905 	0.056811
41.07 	0.058824 	4930 	0.057992
41.11 	0.056940 	4935 	0.056347
41.15 	0.059705 	4941 	0.058638
41.19 	0.055172 	4930 	0.054222
41.23 	0.052642 	4939 	0.052168
41.27 	0.053539 	4931 	0.052588
41.31 	0.057571 	4933 	0.056740
41.35 	0.055893 	4938 	0.055181
41.39 	0.060612 	4933 	0.059306
41.43 	0.052952 	4929 	0.051882
41.47 	0.057044 	4926 	0.055498
41.51 	0.055466 	4940 	0.055228
41.55 	0.050861 	4935 	0.050268
41.59 	0.052098 	4933 	0.050792
41.63 	0.048400 	4938 	0.048044
41.67 	0.054656 	4940 	0.054300
41.71 	0.051885 	4934 	0.051291
41.75 	0.056604 	4929 	0.055772
41.79 	0.052994 	4944 	0.051690
41.83 	0.054383 	4928 	0.054027
41.87 	0.058156 	4935 	0.057681
41.91 	0.050243 	4936 	0.049412
41.95 	0.057595 	4931 	0.056644
41.99 	0.046891 	4905 	0.046413
42.03 	0.056287 	4939 	0.055338
42.07 	0.054081 	4937 	0.053132
42.11 	0.052376 	4945 	0.051902
42.15 	0.053058 	4938 	0.052228
42.19 	0.056438 	4908 	0.055245
42.23 	0.051717 	4892 	0.050280
42.27 	0.051908 	4874 	0.051187
42.31 	0.058496 	4855 	0.057290
42.35 	0.048987 	4838 	0.048745
42.39 	0.050583 	4804 	0.049607
42.43 	0.057596 	4792 	0.056740
42.47 	0.053305 	4765 	0.053059
42.51 	0.048071 	4743 	0.047700
42.55 	0.052676 	4708 	0.051660
42.59 	0.057306 	4729 	0.056811
42.63 	0.051603 	4709 	0.050857
42.67 	0.053587 	4684 	0.052961
42.71 	0.048252 	4663 	0.047498
42.75 	0.051765 	4617 	0.051131
42.79 	0.054125 	4582 	0.053102
42.83 	0.050044 	4536 	0.049786
42.87 	0.057568 	4499 	0.056917
42.91 	0.054982 	4456 	0.054456
42.95 	0.054348 	4416 	0.053154
42.99 	0.044698 	4385 	0.044163
43.03 	0.051004 	4333 	0.050463
43.07 	0.058659 	4296 	0.057705
43.11 	0.053819 	4255 	0.052855
43.15 	0.048027 	4206 	0.047052
43.19 	0.056748 	4194 	0.056049
43.23 	0.050794 	4154 	0.050089
43.27 	0.046529 	4105 	0.046101
43.31 	0.047316 	4079 	0.046741
43.35 	0.051587 	4032 	0.050861
43.39 	0.047476 	4002 	0.046744
43.43 	0.054798 	3960 	0.054182
43.47 	0.047182 	3921 	0.046734
43.51 	0.052618 	3877 	0.051863
43.55 	0.050945 	2964 	0.050747
43.59 	0.056701 	1746 	0.056030
43.63 	0.052947 	1001 	0.052362
43.67 	0.045817 	502 	0.044650
43.71 	0.050209 	239 	0.050209
43.75 	0.125000 	16 	0.125000