File: Example_Data/25SC_s1_0017.001.dat
#F C:\frames\spec\25SC_s1_0017.001
#C title =s:17 frm:1 25SC_s1
#C wavelength =0.15406

#S 1  fr_average C:\frames\spec\25SC_s1_0017.001 C:\win32app\speccom\mask.axs chi 0 180 0 360 0.02
#C 2 theta =0.000000 to 180 deg
#C   q   =0.000000 to 81.568 nm^-1
#C  chi  =0.000000 to 360 deg
#C collumns:
#C  1 position (2theta or chi in degrees)
#C  2 average intensity (sum of all counts in the region divided with number of pixels)
#C  3 Number of pixels in region)
#C  4 error (sum of sqrt(intensity) for all pixels divided by number)
#N 4
#L TTh  Int  N_pix  Err
32.99 	0.114754 	61 	0.114754
33.03 	0.054637 	1391 	0.054637
33.07 	0.068780 	2050 	0.067637
33.11 	0.064366 	2579 	0.063457
33.15 	0.055352 	2999 	0.054570
33.19 	0.054458 	3342 	0.053231
33.23 	0.053364 	3523 	0.051701
33.27 	0.066116 	3630 	0.065632
33.31 	0.059836 	3660 	0.058876
33.35 	0.059015 	3694 	0.058063
33.39 	0.057388 	3729 	0.056288
33.43 	0.070460 	3761 	0.068747
33.47 	0.058715 	3798 	0.057790
33.51 	0.053997 	3815 	0.052769
33.55 	0.060370 	3843 	0.059607
33.59 	0.058505 	3880 	0.057297
33.63 	0.056392 	3919 	0.055495
33.67 	0.064239 	3954 	0.063202
33.71 	0.052579 	3975 	0.051989
33.75 	0.057014 	3999 	0.056428
33.79 	0.063351 	4041 	0.061466
33.83 	0.060741 	4050 	0.059439
33.87 	0.057407 	4111 	0.056410
33.91 	0.060979 	4149 	0.060273
33.95 	0.054772 	4181 	0.053651
33.99 	0.060000 	4200 	0.058884
34.03 	0.061734 	4244 	0.060906
34.07 	0.056467 	4268 	0.055780
34.11 	0.054858 	4302 	0.054177
34.15 	0.056569 	4331 	0.055893
34.19 	0.055938 	4362 	0.054863
34.23 	0.058275 	4393 	0.056941
34.27 	0.059475 	4422 	0.058548
34.31 	0.064379 	4458 	0.062802
34.35 	0.063782 	4484 	0.062607
34.39 	0.060418 	4502 	0.059507
34.43 	0.057942 	4539 	0.056910
34.47 	0.050523 	4592 	0.050012
34.51 	0.056665 	4606 	0.055118
34.55 	0.060521 	4643 	0.059764
34.59 	0.058396 	4675 	0.057644
34.63 	0.057962 	4710 	0.056967
34.67 	0.062856 	4741 	0.061497
34.71 	0.054343 	4766 	0.053094
34.75 	0.053245 	4808 	0.052148
34.79 	0.051617 	4824 	0.050645
34.83 	0.053065 	4862 	0.052101
34.87 	0.058546 	4868 	0.057583
34.91 	0.052233 	4882 	0.051373
34.95 	0.065235 	4890 	0.064516
34.99 	0.053706 	4897 	0.052869
35.03 	0.058062 	4943 	0.057588
35.07 	0.052227 	4940 	0.051021
35.11 	0.056600 	4947 	0.055515
35.15 	0.057930 	4937 	0.057099
35.19 	0.054634 	4942 	0.054160
35.23 	0.057634 	4945 	0.056331
35.27 	0.058003 	4948 	0.056938
35.31 	0.058990 	4933 	0.058040
35.35 	0.060907 	4942 	0.059465
35.39 	0.062690 	4945 	0.061860
35.43 	0.058382 	4933 	0.057314
35.47 	0.057392 	4931 	0.056560
35.51 	0.054405 	4926 	0.053573
35.55 	0.055005 	4945 	0.054038
35.59 	0.058847 	4945 	0.057544
35.63 	0.052600 	4943 	0.051533
35.67 	0.061716 	4942 	0.060768
35.71 	0.058740 	4937 	0.057672
35.75 	0.058406 	4931 	0.057693
35.79 	0.060219 	4932 	0.059744
35.83 	0.059240 	4946 	0.058292
35.87 	0.062767 	4923 	0.062053
35.91 	0.052162 	4927 	0.050973
35.95 	0.054301 	4917 	0.053587
35.99 	0.055882 	4939 	0.054933
36.03 	0.052397 	4943 	0.051568
36.07 	0.059526 	4939 	0.058696
36.11 	0.053763 	4929 	0.052932
36.15 	0.057906 	4939 	0.056839
36.19 	0.050607 	4940 	0.049402
36.23 	0.053090 	4935 	0.052141
36.27 	0.056041 	4925 	0.055188
36.31 	0.055804 	4928 	0.054239
36.35 	0.055184 	4929 	0.054233
36.39 	0.056289 	4921 	0.054861
36.43 	0.057224 	4928 	0.056630
36.47 	0.061791 	4936 	0.060347
36.51 	0.051693 	4933 	0.051336
36.55 	0.057642 	4927 	0.057047
36.59 	0.057097 	4939 	0.056010
36.63 	0.058609 	4931 	0.057777
36.67 	0.060852 	4930 	0.060020
36.71 	0.054257 	4921 	0.052790
36.75 	0.057646 	4944 	0.057172
36.79 	0.058931 	4921 	0.058336
36.83 	0.052289 	4915 	0.052051
36.87 	0.059668 	4944 	0.058109
36.91 	0.059097 	4941 	0.057556
36.95 	0.054125 	4933 	0.052819
36.99 	0.054711 	4935 	0.053762
37.03 	0.059504 	4924 	0.058295
37.07 	0.061803 	4935 	0.060142
37.11 	0.058967 	4935 	0.057661
37.15 	0.055816 	4909 	0.055100
37.19 	0.054416 	4925 	0.054178
37.23 	0.055917 	4918 	0.055083
37.27 	0.061300 	4894 	0.060462
37.31 	0.058561 	4935 	0.057117
37.35 	0.061968 	4938 	0.060426
37.39 	0.057189 	4931 	0.055764
37.43 	0.057989 	4932 	0.056326
37.47 	0.060864 	4929 	0.060032
37.51 	0.053517 	4933 	0.052310
37.55 	0.056592 	4930 	0.055404
37.59 	0.051475 	4915 	0.050998
37.63 	0.050417 	4919 	0.049464
37.67 	0.055057 	4904 	0.054340
37.71 	0.055589 	4929 	0.054520
37.75 	0.056275 	4940 	0.055327
37.79 	0.055984 	4930 	0.055627
37.83 	0.058943 	4920 	0.057752
37.87 	0.052440 	4939 	0.052084
37.91 	0.053347 	4930 	0.052277
37.95 	0.057305 	4921 	0.056710
37.99 	0.048453 	4912 	0.048214
38.03 	0.051334 	4909 	0.050857
38.07 	0.056834 	4909 	0.055522
38.11 	0.054711 	4935 	0.053406
38.15 	0.057544 	4918 	0.056591
38.19 	0.053753 	4930 	0.052921
38.23 	0.058323 	4938 	0.057493
38.27 	0.053753 	4930 	0.052802
38.31 	0.055612 	4927 	0.055136
38.35 	0.057427 	4928 	0.056476
38.39 	0.058668 	4909 	0.057474
38.43 	0.064687 	4916 	0.063356
38.47 	0.064194 	4907 	0.063000
38.51 	0.067315 	4932 	0.065653
38.55 	0.072934 	4936 	0.071391
38.59 	0.068643 	4924 	0.066383
38.63 	0.082250 	4924 	0.079594
38.67 	0.071298 	4937 	0.070230
38.71 	0.077173 	4924 	0.075745
38.75 	0.069819 	4927 	0.067898
38.79 	0.076003 	4934 	0.073728
38.83 	0.070340 	4919 	0.068891
38.87 	0.063531 	4911 	0.062696
38.91 	0.060779 	4903 	0.059943
38.95 	0.054494 	4918 	0.053183
38.99 	0.051651 	4937 	0.050702
39.03 	0.055128 	4934 	0.053703
39.07 	0.051381 	4924 	0.050648
39.11 	0.053133 	4931 	0.052183
39.15 	0.051475 	4915 	0.050879
39.19 	0.049624 	4917 	0.049385
39.23 	0.045482 	4925 	0.045006
39.27 	0.043585 	4910 	0.043465
39.31 	0.045045 	4884 	0.044325
39.35 	0.040729 	4935 	0.040373
39.39 	0.045648 	4929 	0.045173
39.43 	0.039327 	4933 	0.038852
39.47 	0.044891 	4923 	0.043939
39.51 	0.042242 	4924 	0.041885
39.55 	0.045741 	4919 	0.045265
39.59 	0.045399 	4912 	0.044564
39.63 	0.044291 	4922 	0.043577
39.67 	0.050478 	4913 	0.049763
39.71 	0.043514 	4895 	0.042317
39.75 	0.044846 	4928 	0.044014
39.79 	0.046285 	4926 	0.045928
39.83 	0.039116 	4934 	0.038879
39.87 	0.044061 	4925 	0.042990
39.91 	0.045713 	4922 	0.044999
39.95 	0.039878 	4915 	0.039640
39.99 	0.045418 	4932 	0.044943
40.03 	0.039976 	4928 	0.039500
40.07 	0.047126 	4923 	0.046412
40.11 	0.040480 	4916 	0.039388
40.15 	0.045390 	4913 	0.044555
40.19 	0.049097 	4929 	0.048741
40.23 	0.041971 	4932 	0.041971
40.27 	0.041726 	4937 	0.041251
40.31 	0.043126 	4939 	0.042889
40.35 	0.042692 	4919 	0.042196
40.39 	0.045832 	4931 	0.045120
40.43 	0.043681 	4922 	0.043324
40.47 	0.040870 	4918 	0.040275
40.51 	0.043275 	4922 	0.042680
40.55 	0.044010 	4908 	0.043294
40.59 	0.044359 	4937 	0.044122
40.63 	0.040162 	4930 	0.039331
40.67 	0.045418 	4932 	0.044468
40.71 	0.037713 	4932 	0.037357
40.75 	0.039951 	4931 	0.039714
40.79 	0.045288 	4924 	0.044694
40.83 	0.044643 	4928 	0.043692
40.87 	0.042411 	4928 	0.041935
40.91 	0.044079 	4923 	0.043365
40.95 	0.044372 	4913 	0.043776
40.99 	0.050569 	4924 	0.049260
41.03 	0.041794 	4905 	0.041177
41.07 	0.043002 	4930 	0.042764
41.11 	0.042958 	4935 	0.042484
41.15 	0.039870 	4941 	0.039515
41.19 	0.037931 	4930 	0.037456
41.23 	0.041101 	4939 	0.040627
41.27 	0.043399 	4931 	0.042924
41.31 	0.035678 	4933 	0.035441
41.35 	0.037465 	4938 	0.037109
41.39 	0.039530 	4933 	0.038936
41.43 	0.040576 	4929 	0.040220
41.47 	0.042225 	4926 	0.041987
41.51 	0.036032 	4940 	0.035795
41.55 	0.040729 	4935 	0.040255
41.59 	0.043584 	4933 	0.043228
41.63 	0.043945 	4938 	0.043708
41.67 	0.043927 	4940 	0.043453
41.71 	0.037495 	4934 	0.037257
41.75 	0.038142 	4929 	0.037547
41.79 	0.043083 	4944 	0.042253
41.83 	0.036729 	4928 	0.036610
41.87 	0.041743 	4935 	0.040793
41.91 	0.038290 	4936 	0.037578
41.95 	0.041168 	4931 	0.040455
41.99 	0.035270 	4905 	0.034912
42.03 	0.041304 	4939 	0.040829
42.07 	0.037675 	4937 	0.037081
42.11 	0.035794 	4945 	0.035557
42.15 	0.043742 	4938 	0.042793
42.19 	0.041769 	4908 	0.041172
42.23 	0.042927 	4892 	0.042688
42.27 	0.045548 	4874 	0.045307
42.31 	0.035633 	4855 	0.035513
42.35 	0.038032 	4838 	0.037548
42.39 	0.037677 	4804 	0.037189
42.43 	0.040275 	4792 	0.040031
42.47 	0.039664 	4765 	0.039050
42.51 	0.033312 	4743 	0.033312
42.55 	0.041206 	4708 	0.040564
42.59 	0.034891 	4729 	0.034396
42.63 	0.039286 	4709 	0.039038
42.67 	0.042058 	4684 	0.041558
42.71 	0.037529 	4663 	0.037153
42.75 	0.040719 	4617 	0.040212
42.79 	0.039284 	4582 	0.038901
42.83 	0.034832 	4536 	0.034445
42.87 	0.034452 	4499 	0.034322
42.91 	0.036804 	4456 	0.036541
42.95 	0.037817 	4416 	0.037552
42.99 	0.036488 	4385 	0.035954
43.03 	0.037157 	4333 	0.037157
43.07 	0.037011 	4296 	0.036466
43.11 	0.035958 	4255 	0.035545
43.15 	0.037090 	4206 	0.036951
43.19 	0.038388 	4194 	0.037690
43.23 	0.037554 	4154 	0.037272
43.27 	0.036297 	4105 	0.036012
43.31 	0.041432 	4079 	0.041145
43.35 	0.035218 	4032 	0.034928
43.39 	0.033233 	4002 	0.032648
43.43 	0.036616 	3960 	0.036172
43.47 	0.040041 	3921 	0.039891
43.51 	0.039464 	3877 	0.039161
43.55 	0.034750 	2964 	0.033960
43.59 	0.030355 	1746 	0.029684
43.63 	0.033966 	1001 	0.033966
43.67 	0.025896 	502 	0.025896
43.71 	0.037657 	239 	0.037657
43.75 	0.000000 	16 	0.000000