File: Example_Data/25SC_s1_0039.003.dat
#F C:\frames\spec\25SC_s1_0039.003
#C title =s:39 frm:3 25SC_s1
#C wavelength =0.15406

#S 1  fr_average C:\frames\spec\25SC_s1_0039.003 C:\win32app\speccom\mask.axs chi 0 180 0 360 0.02
#C 2 theta =0.000000 to 180 deg
#C   q   =0.000000 to 81.568 nm^-1
#C  chi  =0.000000 to 360 deg
#C collumns:
#C  1 position (2theta or chi in degrees)
#C  2 average intensity (sum of all counts in the region divided with number of pixels)
#C  3 Number of pixels in region)
#C  4 error (sum of sqrt(intensity) for all pixels divided by number)
#N 4
#L TTh  Int  N_pix  Err
32.99 	0.114754 	61 	0.105151
33.03 	0.046729 	1391 	0.046729
33.07 	0.062439 	2050 	0.060678
33.11 	0.059713 	2579 	0.058350
33.15 	0.055352 	2999 	0.054180
33.19 	0.061341 	3342 	0.060289
33.23 	0.055067 	3523 	0.054042
33.27 	0.053994 	3630 	0.053026
33.31 	0.053552 	3660 	0.052272
33.35 	0.054954 	3694 	0.054161
33.39 	0.053097 	3729 	0.052312
33.43 	0.055304 	3761 	0.054058
33.47 	0.058978 	3798 	0.058207
33.51 	0.056881 	3815 	0.056420
33.55 	0.060370 	3843 	0.059760
33.59 	0.067268 	3880 	0.065909
33.63 	0.057413 	3919 	0.056790
33.67 	0.055134 	3954 	0.054541
33.71 	0.056604 	3975 	0.055130
33.75 	0.067517 	3999 	0.066491
33.79 	0.057659 	4041 	0.056644
33.83 	0.051111 	4050 	0.050388
33.87 	0.059596 	4111 	0.059169
33.91 	0.058568 	4149 	0.057439
33.95 	0.054054 	4181 	0.053634
33.99 	0.058333 	4200 	0.057775
34.03 	0.051131 	4244 	0.050142
34.07 	0.052484 	4268 	0.051523
34.11 	0.058113 	4302 	0.057023
34.15 	0.054491 	4331 	0.053679
34.19 	0.051582 	4362 	0.051179
34.23 	0.055315 	4393 	0.054782
34.27 	0.055857 	4422 	0.054930
34.31 	0.050695 	4458 	0.050301
34.35 	0.060437 	4484 	0.059653
34.39 	0.055975 	4502 	0.054804
34.43 	0.062569 	4539 	0.061278
34.47 	0.052918 	4592 	0.052153
34.51 	0.049718 	4606 	0.049082
34.55 	0.054060 	4643 	0.053177
34.59 	0.058396 	4675 	0.057519
34.63 	0.059236 	4710 	0.058241
34.67 	0.057583 	4741 	0.056841
34.71 	0.057071 	4766 	0.056333
34.75 	0.050749 	4808 	0.049896
34.79 	0.055141 	4824 	0.054534
34.83 	0.062937 	4862 	0.061592
34.87 	0.054232 	4868 	0.053149
34.91 	0.062270 	4882 	0.061670
34.95 	0.056646 	4890 	0.055808
34.99 	0.057995 	4897 	0.057277
35.03 	0.055837 	4943 	0.055106
35.07 	0.056478 	4940 	0.055411
35.11 	0.054174 	4947 	0.053464
35.15 	0.057120 	4937 	0.056032
35.19 	0.057264 	4942 	0.056553
35.23 	0.052983 	4945 	0.052391
35.27 	0.063258 	4948 	0.062074
35.31 	0.059599 	4933 	0.058174
35.35 	0.049777 	4942 	0.049422
35.39 	0.057230 	4945 	0.056519
35.43 	0.049666 	4933 	0.048834
35.47 	0.053133 	4931 	0.051826
35.51 	0.054405 	4926 	0.053454
35.55 	0.057230 	4945 	0.056637
35.59 	0.057027 	4945 	0.055724
35.63 	0.057860 	4943 	0.056556
35.67 	0.059288 	4942 	0.058458
35.71 	0.058132 	4937 	0.057421
35.75 	0.053742 	4931 	0.053029
35.79 	0.054339 	4932 	0.053151
35.83 	0.048928 	4946 	0.048455
35.87 	0.054438 	4923 	0.053724
35.91 	0.054800 	4927 	0.054206
35.95 	0.053488 	4917 	0.052873
35.99 	0.061348 	4939 	0.060162
36.03 	0.055230 	4943 	0.054756
36.07 	0.056692 	4939 	0.055268
36.11 	0.055386 	4929 	0.054317
36.15 	0.054060 	4939 	0.053348
36.19 	0.051417 	4940 	0.050449
36.23 	0.058359 	4935 	0.056934
36.27 	0.049543 	4925 	0.048592
36.31 	0.057833 	4928 	0.057120
36.35 	0.047271 	4929 	0.046439
36.39 	0.058118 	4921 	0.057027
36.43 	0.054789 	4928 	0.053957
36.47 	0.050041 	4936 	0.049091
36.51 	0.059599 	4933 	0.057936
36.55 	0.063122 	4927 	0.062527
36.59 	0.052440 	4939 	0.051965
36.63 	0.055161 	4931 	0.054211
36.67 	0.046045 	4930 	0.045213
36.71 	0.050803 	4921 	0.049969
36.75 	0.052994 	4944 	0.051671
36.79 	0.051412 	4921 	0.050341
36.83 	0.049237 	4915 	0.048879
36.87 	0.052994 	4944 	0.052046
36.91 	0.055252 	4941 	0.054304
36.95 	0.052706 	4933 	0.051044
36.99 	0.055522 	4935 	0.054453
37.03 	0.053412 	4924 	0.052678
37.07 	0.049037 	4935 	0.048207
37.11 	0.050253 	4935 	0.049284
37.15 	0.057038 	4909 	0.056203
37.19 	0.054010 	4925 	0.053178
37.23 	0.051647 	4918 	0.051051
37.27 	0.046792 	4894 	0.046313
37.31 	0.051874 	4935 	0.051281
37.35 	0.053058 	4938 	0.052346
37.39 	0.052728 	4931 	0.051401
37.43 	0.048662 	4932 	0.047692
37.47 	0.051126 	4929 	0.050651
37.51 	0.041760 	4933 	0.041166
37.55 	0.047667 	4930 	0.046836
37.59 	0.050865 	4915 	0.050507
37.63 	0.055092 	4919 	0.054259
37.67 	0.058931 	4904 	0.058215
37.71 	0.049706 	4929 	0.049349
37.75 	0.050810 	4940 	0.049604
37.79 	0.051927 	4930 	0.051214
37.83 	0.049390 	4920 	0.049152
37.87 	0.051630 	4939 	0.051037
37.91 	0.052130 	4930 	0.050942
37.95 	0.052835 	4921 	0.052240
37.99 	0.050081 	4912 	0.049127
38.03 	0.052149 	4909 	0.051075
38.07 	0.053779 	4909 	0.053063
38.11 	0.050253 	4935 	0.049541
38.15 	0.051037 	4918 	0.050203
38.19 	0.055172 	4930 	0.054578
38.23 	0.053058 	4938 	0.052228
38.27 	0.051724 	4930 	0.050774
38.31 	0.055815 	4927 	0.054963
38.35 	0.058847 	4928 	0.058491
38.39 	0.063149 	4909 	0.062075
38.43 	0.058177 	4916 	0.056867
38.47 	0.057469 	4907 	0.056514
38.51 	0.061030 	4932 	0.060317
38.55 	0.057131 	4936 	0.056894
38.59 	0.057271 	4924 	0.056319
38.63 	0.058692 	4924 	0.057859
38.67 	0.049018 	4937 	0.047831
38.71 	0.056661 	4924 	0.055828
38.75 	0.048711 	4927 	0.047998
38.79 	0.052696 	4934 	0.051271
38.83 	0.048384 	4919 	0.048027
38.87 	0.042150 	4911 	0.041435
38.91 	0.056496 	4903 	0.055640
38.95 	0.043310 	4918 	0.042715
38.99 	0.048613 	4937 	0.047644
39.03 	0.047223 	4934 	0.046630
39.07 	0.050975 	4924 	0.049885
39.11 	0.048266 	4931 	0.047672
39.15 	0.050458 	4915 	0.049743
39.19 	0.049624 	4917 	0.049028
39.23 	0.049746 	4925 	0.048914
39.27 	0.046232 	4910 	0.045516
39.31 	0.047502 	4884 	0.046523
39.35 	0.044174 	4935 	0.042968
39.39 	0.046663 	4929 	0.045950
39.43 	0.043179 	4933 	0.042585
39.47 	0.044282 	4923 	0.043449
39.51 	0.044273 	4924 	0.043659
39.55 	0.051230 	4919 	0.050515
39.59 	0.049674 	4912 	0.049078
39.63 	0.044697 	4922 	0.043983
39.67 	0.048850 	4913 	0.047777
39.71 	0.051277 	4895 	0.051037
39.75 	0.047484 	4928 	0.046414
39.79 	0.044255 	4926 	0.043779
39.83 	0.044183 	4934 	0.043352
39.87 	0.048731 	4925 	0.047879
39.91 	0.046119 	4922 	0.045762
39.95 	0.049644 	4915 	0.049525
39.99 	0.047445 	4932 	0.046594
40.03 	0.046469 	4928 	0.045518
40.07 	0.048345 	4923 	0.047988
40.11 	0.046176 	4916 	0.045699
40.15 	0.046815 	4913 	0.046338
40.19 	0.053155 	4929 	0.051966
40.23 	0.044809 	4932 	0.044334
40.27 	0.042536 	4937 	0.042417
40.31 	0.045758 	4939 	0.045165
40.35 	0.044521 	4919 	0.043688
40.39 	0.043805 	4931 	0.043211
40.43 	0.045510 	4922 	0.044558
40.47 	0.051444 	4918 	0.050610
40.51 	0.047542 	4922 	0.047066
40.55 	0.042991 	4908 	0.042752
40.59 	0.048613 	4937 	0.048019
40.63 	0.047059 	4930 	0.046821
40.67 	0.048256 	4932 	0.047425
40.71 	0.039740 	4932 	0.039622
40.75 	0.044210 	4931 	0.043616
40.79 	0.044476 	4924 	0.043524
40.83 	0.042817 	4928 	0.041984
40.87 	0.045657 	4928 	0.045182
40.91 	0.044688 	4923 	0.044331
40.95 	0.041726 	4913 	0.041011
40.99 	0.045898 	4924 	0.045660
41.03 	0.044037 	4905 	0.043798
41.07 	0.043205 	4930 	0.042967
41.11 	0.045593 	4935 	0.044881
41.15 	0.044728 	4941 	0.044372
41.19 	0.041582 	4930 	0.041345
41.23 	0.044138 	4939 	0.043308
41.27 	0.041979 	4931 	0.041267
41.31 	0.041151 	4933 	0.040320
41.35 	0.040907 	4938 	0.040433
41.39 	0.047436 	4933 	0.047198
41.43 	0.041185 	4929 	0.040591
41.47 	0.045270 	4926 	0.044200
41.51 	0.042713 	4940 	0.042238
41.55 	0.045187 	4935 	0.044119
41.59 	0.045408 	4933 	0.044696
41.63 	0.039085 	4938 	0.038966
41.67 	0.040486 	4940 	0.040012
41.71 	0.047223 	4934 	0.046511
41.75 	0.045648 	4929 	0.045054
41.79 	0.037419 	4944 	0.036945
41.83 	0.042208 	4928 	0.041970
41.87 	0.044377 	4935 	0.043902
41.91 	0.041126 	4936 	0.040414
41.95 	0.041574 	4931 	0.041099
41.99 	0.042813 	4905 	0.042336
42.03 	0.039887 	4939 	0.039531
42.07 	0.039498 	4937 	0.039142
42.11 	0.037209 	4945 	0.036972
42.15 	0.041515 	4938 	0.041278
42.19 	0.041972 	4908 	0.041734
42.23 	0.035568 	4892 	0.035449
42.27 	0.036110 	4874 	0.035870
42.31 	0.040165 	4855 	0.039320
42.35 	0.042166 	4838 	0.041682
42.39 	0.040799 	4804 	0.040677
42.43 	0.040484 	4792 	0.039751
42.47 	0.041133 	4765 	0.040498
42.51 	0.036686 	4743 	0.036439
42.55 	0.037596 	4708 	0.037098
42.59 	0.040601 	4729 	0.040353
42.63 	0.038862 	4709 	0.038613
42.67 	0.042058 	4684 	0.041308
42.71 	0.036028 	4663 	0.035651
42.75 	0.036171 	4617 	0.036171
42.79 	0.041903 	4582 	0.041392
42.83 	0.040344 	4536 	0.040086
42.87 	0.038453 	4499 	0.038193
42.91 	0.039273 	4456 	0.039141
42.95 	0.041214 	4416 	0.040816
42.99 	0.046294 	4385 	0.045359
43.03 	0.034387 	4333 	0.034117
43.07 	0.036778 	4296 	0.036369
43.11 	0.039718 	4255 	0.038892
43.15 	0.041369 	4206 	0.040511
43.19 	0.045303 	4194 	0.045023
43.23 	0.042128 	4154 	0.041987
43.27 	0.038490 	4105 	0.037776
43.31 	0.037754 	4079 	0.037180
43.35 	0.039931 	4032 	0.039349
43.39 	0.034983 	4002 	0.034690
43.43 	0.045202 	3960 	0.044314
43.47 	0.041826 	3921 	0.041378
43.51 	0.038174 	3877 	0.037267
43.55 	0.038462 	2964 	0.037869
43.59 	0.033219 	1746 	0.032548
43.63 	0.034965 	1001 	0.034965
43.67 	0.043825 	502 	0.042658
43.71 	0.029289 	239 	0.029289
43.75 	0.000000 	16 	0.000000