File: Example_Data/25SC_s1_0046.003.dat
#F C:\frames\spec\25SC_s1_0046.003
#C title =s:46 frm:3 25SC_s1
#C wavelength =0.15406

#S 1  fr_average C:\frames\spec\25SC_s1_0046.003 C:\win32app\speccom\mask.axs chi 0 180 0 360 0.02
#C 2 theta =0.000000 to 180 deg
#C   q   =0.000000 to 81.568 nm^-1
#C  chi  =0.000000 to 360 deg
#C collumns:
#C  1 position (2theta or chi in degrees)
#C  2 average intensity (sum of all counts in the region divided with number of pixels)
#C  3 Number of pixels in region)
#C  4 error (sum of sqrt(intensity) for all pixels divided by number)
#N 4
#L TTh  Int  N_pix  Err
32.99 	0.081967 	61 	0.072364
33.03 	0.058950 	1391 	0.057687
33.07 	0.061951 	2050 	0.059951
33.11 	0.052346 	2579 	0.051437
33.15 	0.062354 	2999 	0.060987
33.19 	0.057451 	3342 	0.056750
33.23 	0.059041 	3523 	0.058708
33.27 	0.050413 	3630 	0.049768
33.31 	0.056011 	3660 	0.055051
33.35 	0.054683 	3694 	0.053415
33.39 	0.061142 	3729 	0.060357
33.43 	0.060888 	3761 	0.060421
33.47 	0.062401 	3798 	0.061476
33.51 	0.063434 	3815 	0.062513
33.55 	0.058288 	3843 	0.057831
33.59 	0.063402 	3880 	0.062647
33.63 	0.059709 	3919 	0.058812
33.67 	0.057410 	3954 	0.055929
33.71 	0.058616 	3975 	0.057585
33.75 	0.063016 	3999 	0.061551
33.79 	0.057906 	4041 	0.056602
33.83 	0.065432 	4050 	0.064420
33.87 	0.060083 	4111 	0.059085
33.91 	0.053507 	4149 	0.053083
33.95 	0.054532 	4181 	0.053972
33.99 	0.057619 	4200 	0.055760
34.03 	0.053252 	4244 	0.053114
34.07 	0.058810 	4268 	0.057849
34.11 	0.056950 	4302 	0.055452
34.15 	0.052413 	4331 	0.051038
34.19 	0.050665 	4362 	0.049859
34.23 	0.063738 	4393 	0.063071
34.27 	0.054274 	4422 	0.053612
34.31 	0.051368 	4458 	0.051106
34.35 	0.058207 	4484 	0.057292
34.39 	0.056641 	4502 	0.055340
34.43 	0.059705 	4539 	0.058801
34.47 	0.055749 	4592 	0.054984
34.51 	0.061007 	4606 	0.060499
34.55 	0.059660 	4643 	0.058777
34.59 	0.060321 	4675 	0.059444
34.63 	0.061571 	4710 	0.060079
34.67 	0.056106 	4741 	0.054871
34.71 	0.054553 	4766 	0.054061
34.75 	0.066140 	4808 	0.065287
34.79 	0.057007 	4824 	0.056521
34.83 	0.058001 	4862 	0.056314
34.87 	0.058956 	4868 	0.058114
34.91 	0.062474 	4882 	0.061634
34.95 	0.056851 	4890 	0.056372
34.99 	0.055340 	4897 	0.054024
35.03 	0.054420 	4943 	0.053472
35.07 	0.056275 	4940 	0.055564
35.11 	0.059834 	4947 	0.058413
35.15 	0.055499 	4937 	0.054906
35.19 	0.058681 	4942 	0.057614
35.23 	0.066330 	4945 	0.065027
35.27 	0.060226 	4948 	0.059398
35.31 	0.049868 	4933 	0.048562
35.35 	0.057062 	4942 	0.056351
35.39 	0.063094 	4945 	0.061436
35.43 	0.050071 	4933 	0.049596
35.47 	0.056986 	4931 	0.056254
35.51 	0.061104 	4926 	0.059796
35.55 	0.059858 	4945 	0.058674
35.59 	0.059050 	4945 	0.057865
35.63 	0.055230 	4943 	0.054519
35.67 	0.054229 	4942 	0.053854
35.71 	0.062386 	4937 	0.061200
35.75 	0.057798 	4931 	0.056313
35.79 	0.055556 	4932 	0.053992
35.83 	0.061868 	4946 	0.060191
35.87 	0.058704 	4923 	0.057871
35.91 	0.051959 	4927 	0.050889
35.95 	0.058572 	4917 	0.057738
35.99 	0.058919 	4939 	0.058089
36.03 	0.057455 	4943 	0.057099
36.07 	0.052642 	4939 	0.051456
36.11 	0.053155 	4929 	0.052679
36.15 	0.059931 	4939 	0.059457
36.19 	0.056478 	4940 	0.055292
36.23 	0.053495 	4935 	0.052546
36.27 	0.060711 	4925 	0.059640
36.31 	0.054180 	4928 	0.053348
36.35 	0.056807 	4929 	0.055480
36.39 	0.053648 	4921 	0.053291
36.43 	0.058644 	4928 	0.057218
36.47 	0.060170 	4936 	0.059102
36.51 	0.051895 	4933 	0.051302
36.55 	0.058859 	4927 	0.058384
36.59 	0.054869 	4939 	0.054158
36.63 	0.055972 	4931 	0.055378
36.67 	0.055578 	4930 	0.054252
36.71 	0.054867 	4921 	0.053438
36.75 	0.058050 	4944 	0.056865
36.79 	0.054257 	4921 	0.053662
36.83 	0.051272 	4915 	0.050676
36.87 	0.058050 	4944 	0.056865
36.91 	0.059907 	4941 	0.058702
36.95 	0.051490 	4933 	0.051252
36.99 	0.057548 	4935 	0.056599
37.03 	0.054833 	4924 	0.054001
37.07 	0.055927 	4935 	0.054977
37.11 	0.053698 	4935 	0.052748
37.15 	0.054390 	4909 	0.053316
37.19 	0.054416 	4925 	0.053188
37.23 	0.055714 	4918 	0.054265
37.27 	0.051492 	4894 	0.050654
37.31 	0.055117 	4935 	0.054523
37.35 	0.050628 	4938 	0.050153
37.39 	0.049888 	4931 	0.049413
37.43 	0.058191 	4932 	0.057241
37.47 	0.055589 	4929 	0.054401
37.51 	0.056355 	4933 	0.055405
37.55 	0.049087 	4930 	0.048018
37.59 	0.056358 	4915 	0.055762
37.63 	0.057939 	4919 	0.057700
37.67 	0.058524 	4904 	0.057090
37.71 	0.051735 	4929 	0.051259
37.75 	0.055466 	4940 	0.054517
37.79 	0.052535 	4930 	0.051110
37.83 	0.051829 	4920 	0.050857
37.87 	0.049403 	4939 	0.048810
37.91 	0.052535 	4930 	0.051546
37.95 	0.053038 	4921 	0.051491
37.99 	0.049064 	4912 	0.048706
38.03 	0.051538 	4909 	0.050444
38.07 	0.049297 	4909 	0.048343
38.11 	0.052685 	4935 	0.052091
38.15 	0.050020 	4918 	0.049544
38.19 	0.051318 	4930 	0.051081
38.23 	0.049008 	4938 	0.048770
38.27 	0.054970 	4930 	0.053999
38.31 	0.052770 	4927 	0.051819
38.35 	0.056615 	4928 	0.056021
38.39 	0.058057 	4909 	0.056983
38.43 	0.057364 	4916 	0.056410
38.47 	0.061137 	4907 	0.060043
38.51 	0.067721 	4932 	0.066652
38.55 	0.055308 	4936 	0.054596
38.59 	0.048741 	4924 	0.048146
38.63 	0.062551 	4924 	0.061123
38.67 	0.061778 	4937 	0.060286
38.71 	0.055240 	4924 	0.053931
38.75 	0.050335 	4927 	0.049622
38.79 	0.047831 	4934 	0.047238
38.83 	0.055702 	4919 	0.054512
38.87 	0.049888 	4911 	0.049172
38.91 	0.050581 	4903 	0.049984
38.95 	0.049410 	4918 	0.048557
38.99 	0.050638 	4937 	0.049926
39.03 	0.042967 	4934 	0.042017
39.07 	0.042242 	4924 	0.041766
39.11 	0.047049 	4931 	0.046337
39.15 	0.051068 	4915 	0.050711
39.19 	0.045556 	4917 	0.045080
39.23 	0.048731 	4925 	0.048136
39.27 	0.044603 	4910 	0.044006
39.31 	0.050164 	4884 	0.049804
39.35 	0.046606 	4935 	0.046131
39.39 	0.047271 	4929 	0.046677
39.43 	0.049666 	4933 	0.048458
39.47 	0.047329 	4923 	0.046734
39.51 	0.044273 	4924 	0.043916
39.55 	0.048790 	4919 	0.048314
39.59 	0.045603 	4912 	0.044768
39.63 	0.048354 	4922 	0.047878
39.67 	0.053531 	4913 	0.052578
39.71 	0.051277 	4895 	0.050200
39.75 	0.045657 	4928 	0.044944
39.79 	0.044864 	4926 	0.044507
39.83 	0.052898 	4934 	0.052305
39.87 	0.042234 	4925 	0.041639
39.91 	0.044697 	4922 	0.043983
39.95 	0.047406 	4915 	0.046214
39.99 	0.048256 	4932 	0.048019
40.03 	0.039976 	4928 	0.039857
40.07 	0.041641 	4923 	0.041146
40.11 	0.048413 	4916 	0.047579
40.15 	0.052310 	4913 	0.051456
40.19 	0.049503 	4929 	0.048909
40.23 	0.048256 	4932 	0.047781
40.27 	0.047600 	4937 	0.046888
40.31 	0.047985 	4939 	0.047748
40.35 	0.047977 	4919 	0.047263
40.39 	0.042993 	4931 	0.041805
40.43 	0.043885 	4922 	0.043528
40.47 	0.046157 	4918 	0.045681
40.51 	0.047338 	4922 	0.046624
40.55 	0.042176 	4908 	0.041818
40.59 	0.043346 	4937 	0.043346
40.63 	0.042799 	4930 	0.042443
40.67 	0.051703 	4932 	0.050753
40.71 	0.052109 	4932 	0.051158
40.75 	0.051511 	4931 	0.051036
40.79 	0.041227 	4924 	0.040731
40.83 	0.047890 	4928 	0.047533
40.87 	0.048093 	4928 	0.047260
40.91 	0.045907 	4923 	0.045550
40.95 	0.043965 	4913 	0.043369
40.99 	0.048335 	4924 	0.047502
41.03 	0.047503 	4905 	0.046667
41.07 	0.048276 	4930 	0.047306
41.11 	0.044377 	4935 	0.043902
41.15 	0.043513 	4941 	0.042328
41.19 	0.041785 	4930 	0.041191
41.23 	0.044746 	4939 	0.044509
41.27 	0.043196 	4931 	0.042721
41.31 	0.043989 	4933 	0.043277
41.35 	0.043742 	4938 	0.043505
41.39 	0.045814 	4933 	0.044983
41.43 	0.046257 	4929 	0.045306
41.47 	0.043849 	4926 	0.043611
41.51 	0.048178 	4940 	0.047348
41.55 	0.043161 	4935 	0.042568
41.59 	0.043584 	4933 	0.042872
41.63 	0.043135 	4938 	0.042542
41.67 	0.042510 	4940 	0.041917
41.71 	0.040738 	4934 	0.040144
41.75 	0.040982 	4929 	0.040388
41.79 	0.036610 	4944 	0.036610
41.83 	0.045657 	4928 	0.045063
41.87 	0.038095 	4935 	0.037620
41.91 	0.040721 	4936 	0.040247
41.95 	0.042993 	4931 	0.042399
41.99 	0.044241 	4905 	0.044002
42.03 	0.039482 	4939 	0.039126
42.07 	0.043346 	4937 	0.042872
42.11 	0.044287 	4945 	0.043576
42.15 	0.038477 	4938 	0.037765
42.19 	0.047474 	4908 	0.046638
42.23 	0.043540 	4892 	0.042942
42.27 	0.035289 	4874 	0.035049
42.31 	0.036869 	4855 	0.036628
42.35 	0.035759 	4838 	0.035274
42.39 	0.041632 	4804 	0.040900
42.43 	0.037354 	4792 	0.037232
42.47 	0.045121 	4765 	0.044752
42.51 	0.037318 	4743 	0.036701
42.55 	0.046729 	4708 	0.046231
42.59 	0.042081 	4729 	0.041338
42.63 	0.039711 	4709 	0.038820
42.67 	0.043553 	4684 	0.042156
42.71 	0.044392 	4663 	0.044015
42.75 	0.042668 	4617 	0.042161
42.79 	0.037975 	4582 	0.037463
42.83 	0.041667 	4536 	0.039945
42.87 	0.042454 	4499 	0.042193
42.91 	0.041293 	4456 	0.040504
42.95 	0.039402 	4416 	0.039004
42.99 	0.046294 	4385 	0.045760
43.03 	0.037157 	4333 	0.036751
43.07 	0.040968 	4296 	0.040287
43.11 	0.039248 	4255 	0.038835
43.15 	0.041845 	4206 	0.041126
43.19 	0.042442 	4194 	0.042023
43.23 	0.040684 	4154 	0.040402
43.27 	0.033861 	4105 	0.033861
43.31 	0.037754 	4079 	0.037036
43.35 	0.038690 	4032 	0.038400
43.39 	0.041729 	4002 	0.041144
43.43 	0.042929 	3960 	0.042486
43.47 	0.039531 	3921 	0.038909
43.51 	0.039464 	3877 	0.039161
43.55 	0.042173 	2964 	0.041777
43.59 	0.044674 	1746 	0.044674
43.63 	0.054945 	1001 	0.053775
43.67 	0.029880 	502 	0.029880
43.71 	0.029289 	239 	0.029289
43.75 	0.000000 	16 	0.000000