File: Example_Data/25SC_s1_0005.000.dat
#F C:\frames\spec\25SC_s1_0005.000
#C title =s:5 frm:0 25SC_s1
#C wavelength =0.15406

#S 1  fr_average C:\frames\spec\25SC_s1_0005.000 C:\win32app\speccom\mask.axs chi 0 180 0 360 0.02
#C 2 theta =0.000000 to 180 deg
#C   q   =0.000000 to 81.568 nm^-1
#C  chi  =0.000000 to 360 deg
#C collumns:
#C  1 position (2theta or chi in degrees)
#C  2 average intensity (sum of all counts in the region divided with number of pixels)
#C  3 Number of pixels in region)
#C  4 error (sum of sqrt(intensity) for all pixels divided by number)
#N 4
#L TTh  Int  N_pix  Err
32.99 	0.049180 	61 	0.049180
33.03 	0.060388 	1391 	0.059125
33.07 	0.065854 	2050 	0.064996
33.11 	0.060101 	2579 	0.058965
33.15 	0.062021 	2999 	0.060653
33.19 	0.049671 	3342 	0.048970
33.23 	0.063866 	3523 	0.062203
33.27 	0.063085 	3630 	0.061929
33.31 	0.065574 	3660 	0.063973
33.35 	0.061722 	3694 	0.059819
33.39 	0.060606 	3729 	0.060292
33.43 	0.067801 	3761 	0.065932
33.47 	0.059242 	3798 	0.058137
33.51 	0.061075 	3815 	0.060153
33.55 	0.069217 	3843 	0.067540
33.59 	0.056186 	3880 	0.055431
33.63 	0.067364 	3919 	0.066318
33.67 	0.066768 	3954 	0.065286
33.71 	0.058868 	3975 	0.058426
33.75 	0.066017 	3999 	0.063966
33.79 	0.055184 	4041 	0.054894
33.83 	0.052099 	4050 	0.051665
33.87 	0.055704 	4111 	0.054992
33.91 	0.057604 	4149 	0.056616
33.95 	0.058120 	4181 	0.056836
33.99 	0.065476 	4200 	0.064059
34.03 	0.064797 	4244 	0.063118
34.07 	0.055530 	4268 	0.054843
34.11 	0.052301 	4302 	0.051620
34.15 	0.056107 	4331 	0.055003
34.19 	0.060523 	4362 	0.059180
34.23 	0.057819 	4393 	0.057019
34.27 	0.056762 	4422 	0.056232
34.31 	0.056752 	4458 	0.055285
34.35 	0.055531 	4484 	0.054878
34.39 	0.059751 	4502 	0.058190
34.43 	0.059484 	4539 	0.058323
34.47 	0.056838 	4592 	0.056455
34.51 	0.052974 	4606 	0.051957
34.55 	0.052983 	4643 	0.052352
34.59 	0.060963 	4675 	0.060211
34.63 	0.059023 	4710 	0.058028
34.67 	0.056950 	4741 	0.055818
34.71 	0.059169 	4766 	0.058309
34.75 	0.055532 	4808 	0.054680
34.79 	0.060116 	4824 	0.059387
34.83 	0.063348 	4862 	0.062023
34.87 	0.061832 	4868 	0.060870
34.91 	0.052642 	4882 	0.051922
34.95 	0.055624 	4890 	0.055025
34.99 	0.059628 	4897 	0.058432
35.03 	0.056848 	4943 	0.055663
35.07 	0.057085 	4940 	0.056611
35.11 	0.063877 	4947 	0.062575
35.15 	0.064006 	4937 	0.063275
35.19 	0.057467 	4942 	0.056281
35.23 	0.056218 	4945 	0.055745
35.27 	0.059620 	4948 	0.058673
35.31 	0.063045 	4933 	0.061857
35.35 	0.053420 	4942 	0.052946
35.39 	0.063296 	4945 	0.062585
35.43 	0.057166 	4933 	0.056216
35.47 	0.059420 	4931 	0.058470
35.51 	0.055623 	4926 	0.054910
35.55 	0.057027 	4945 	0.055724
35.59 	0.056623 	4945 	0.055438
35.63 	0.061906 	4943 	0.060958
35.67 	0.060704 	4942 	0.059874
35.71 	0.062791 	4937 	0.061486
35.75 	0.063273 	4931 	0.062085
35.79 	0.054947 	4932 	0.053997
35.83 	0.062475 	4946 	0.060817
35.87 	0.059517 	4923 	0.058545
35.91 	0.053785 	4927 	0.052676
35.95 	0.061420 	4917 	0.060824
35.99 	0.054869 	4939 	0.053921
36.03 	0.059276 	4943 	0.058446
36.07 	0.064790 	4939 	0.063486
36.11 	0.062082 	4929 	0.061487
36.15 	0.059931 	4939 	0.058627
36.19 	0.056275 	4940 	0.055426
36.23 	0.057548 	4935 	0.056104
36.27 	0.066599 	4925 	0.065053
36.31 	0.055601 	4928 	0.054887
36.35 	0.066951 	4929 	0.066000
36.39 	0.058728 	4921 	0.056823
36.43 	0.069805 	4928 	0.068379
36.47 	0.068071 	4936 	0.066766
36.51 	0.059193 	4933 	0.057887
36.55 	0.067790 	4927 	0.066363
36.59 	0.066410 	4939 	0.065461
36.63 	0.065301 	4931 	0.063994
36.67 	0.056389 	4930 	0.056033
36.71 	0.061776 	4921 	0.060705
36.75 	0.056432 	4944 	0.055702
36.79 	0.056289 	4921 	0.055218
36.83 	0.064293 	4915 	0.063101
36.87 	0.058050 	4944 	0.056628
36.91 	0.059300 	4941 	0.058233
36.95 	0.061018 	4933 	0.060780
36.99 	0.059980 	4935 	0.058555
37.03 	0.064582 	4924 	0.063154
37.07 	0.058561 	4935 	0.057018
37.11 	0.054914 	4935 	0.053589
37.15 	0.061112 	4909 	0.059661
37.19 	0.067411 	4925 	0.066103
37.23 	0.068117 	4918 	0.066311
37.27 	0.063752 	4894 	0.062196
37.31 	0.057345 	4935 	0.056158
37.35 	0.060956 	4938 	0.059414
37.39 	0.066721 	4931 	0.065414
37.43 	0.059205 	4932 	0.058374
37.47 	0.061067 	4929 	0.059859
37.51 	0.058585 	4933 	0.058229
37.55 	0.060243 	4930 	0.058818
37.59 	0.057172 	4915 	0.055623
37.63 	0.056109 	4919 	0.055018
37.67 	0.050979 	4904 	0.050362
37.71 	0.060864 	4929 	0.059557
37.75 	0.054656 	4940 	0.054063
37.79 	0.059432 	4930 	0.058838
37.83 	0.056301 	4920 	0.055110
37.87 	0.060741 	4939 	0.059674
37.91 	0.058418 	4930 	0.057348
37.95 	0.062386 	4921 	0.061195
37.99 	0.054764 	4912 	0.053810
38.03 	0.056631 	4909 	0.056034
38.07 	0.058871 	4909 	0.058275
38.11 	0.055117 	4935 	0.054998
38.15 	0.056730 	4918 	0.055777
38.19 	0.054361 	4930 	0.053529
38.23 	0.055488 	4938 	0.054776
38.27 	0.061258 	4930 	0.060307
38.31 	0.065354 	4927 	0.064364
38.35 	0.064935 	4928 	0.063390
38.39 	0.071501 	4909 	0.069930
38.43 	0.073841 	4916 	0.071914
38.47 	0.077644 	4907 	0.076570
38.51 	0.075831 	4932 	0.073654
38.55 	0.076985 	4936 	0.075561
38.59 	0.085297 	4924 	0.084107
38.63 	0.086515 	4924 	0.083759
38.67 	0.082439 	4937 	0.080303
38.71 	0.082047 	4924 	0.080481
38.75 	0.070022 	4927 	0.068596
38.79 	0.063640 	4934 	0.062690
38.83 	0.062818 	4919 	0.062103
38.87 	0.056811 	4911 	0.055599
38.91 	0.049969 	4903 	0.048516
38.95 	0.049004 	4918 	0.048408
38.99 	0.053474 	4937 	0.052525
39.03 	0.049655 	4934 	0.049062
39.07 	0.049959 	4924 	0.049127
39.11 	0.051308 	4931 	0.050120
39.15 	0.050254 	4915 	0.049301
39.19 	0.047793 	4917 	0.047178
39.23 	0.048934 	4925 	0.048458
39.27 	0.049898 	4910 	0.049540
39.31 	0.050164 	4884 	0.049065
39.35 	0.047416 	4935 	0.046229
39.39 	0.046460 	4929 	0.045747
39.43 	0.046827 	4933 	0.045996
39.47 	0.053220 	4923 	0.052149
39.51 	0.046507 	4924 	0.045555
39.55 	0.043505 	4919 	0.042790
39.59 	0.046417 	4912 	0.045701
39.63 	0.045307 	4922 	0.044593
39.67 	0.043151 	4913 	0.042674
39.71 	0.046782 	4895 	0.046184
39.75 	0.042614 	4928 	0.042019
39.79 	0.048721 	4926 	0.048245
39.83 	0.046818 	4934 	0.046343
39.87 	0.044467 	4925 	0.043872
39.91 	0.048557 	4922 	0.047843
39.95 	0.047609 	4915 	0.046894
39.99 	0.047242 	4932 	0.046767
40.03 	0.042817 	4928 	0.042222
40.07 	0.045094 	4923 	0.044381
40.11 	0.044345 	4916 	0.044345
40.15 	0.044983 	4913 	0.044744
40.19 	0.047271 	4929 	0.046558
40.23 	0.040552 	4932 	0.039839
40.27 	0.048815 	4937 	0.048103
40.31 	0.039279 	4939 	0.038330
40.35 	0.041675 	4919 	0.041318
40.39 	0.045832 	4931 	0.045120
40.43 	0.040837 	4922 	0.040242
40.47 	0.041887 	4918 	0.041768
40.51 	0.043275 	4922 	0.042918
40.55 	0.044010 	4908 	0.043532
40.59 	0.046182 	4937 	0.045589
40.63 	0.043611 	4930 	0.043016
40.67 	0.052514 	4932 	0.052158
40.71 	0.043796 	4932 	0.043202
40.75 	0.042993 	4931 	0.042281
40.79 	0.044070 	4924 	0.043475
40.83 	0.044440 	4928 	0.044202
40.87 	0.043628 	4928 	0.043272
40.91 	0.043673 	4923 	0.043078
40.95 	0.045390 	4913 	0.044794
40.99 	0.048132 	4924 	0.047418
41.03 	0.045872 	4905 	0.045394
41.07 	0.043002 	4930 	0.042764
41.11 	0.040527 	4935 	0.040289
41.15 	0.043716 	4941 	0.043242
41.19 	0.040771 	4930 	0.040296
41.23 	0.048795 	4939 	0.048321
41.27 	0.042182 	4931 	0.042063
41.31 	0.044395 	4933 	0.043920
41.35 	0.038882 	4938 	0.038170
41.39 	0.042368 	4933 	0.041655
41.43 	0.043011 	4929 	0.042654
41.47 	0.042225 	4926 	0.041393
41.51 	0.043117 	4940 	0.042525
41.55 	0.040932 	4935 	0.040339
41.59 	0.041760 	4933 	0.041166
41.63 	0.046173 	4938 	0.045579
41.67 	0.042510 	4940 	0.042036
41.71 	0.041751 	4934 	0.041395
41.75 	0.044025 	4929 	0.043550
41.79 	0.040453 	4944 	0.039624
41.83 	0.035106 	4928 	0.034630
41.87 	0.043161 	4935 	0.042330
41.91 	0.036872 	4936 	0.036635
41.95 	0.046238 	4931 	0.046119
41.99 	0.039551 	4905 	0.038954
42.03 	0.047378 	4939 	0.046429
42.07 	0.040105 	4937 	0.039749
42.11 	0.042669 	4945 	0.042058
42.15 	0.040907 	4938 	0.040433
42.19 	0.035452 	4908 	0.035075
42.23 	0.035568 	4892 	0.034850
42.27 	0.040624 	4874 	0.040023
42.31 	0.043666 	4855 	0.043184
42.35 	0.037412 	4838 	0.037412
42.39 	0.042048 	4804 	0.041195
42.43 	0.043823 	4792 	0.043456
42.47 	0.041343 	4765 	0.040851
42.51 	0.044908 	4743 	0.044661
42.55 	0.039507 	4708 	0.038512
42.59 	0.044407 	4729 	0.044035
42.63 	0.042047 	4709 	0.041301
42.67 	0.039710 	4684 	0.039585
42.71 	0.039245 	4663 	0.038868
42.75 	0.042885 	4617 	0.042504
42.79 	0.038411 	4582 	0.038283
42.83 	0.039021 	4536 	0.037859
42.87 	0.038675 	4499 	0.038415
42.91 	0.039497 	4456 	0.038971
42.95 	0.040082 	4416 	0.039949
42.99 	0.042645 	4385 	0.042512
43.03 	0.039465 	4333 	0.039059
43.07 	0.044693 	4296 	0.043875
43.11 	0.039718 	4255 	0.039030
43.15 	0.046600 	4206 	0.046461
43.19 	0.037196 	4194 	0.036777
43.23 	0.038036 	4154 	0.037754
43.27 	0.043118 	4105 	0.043118
43.31 	0.039961 	4079 	0.039243
43.35 	0.036210 	4032 	0.035920
43.39 	0.036732 	4002 	0.036146
43.43 	0.040152 	3960 	0.039560
43.47 	0.038001 	3921 	0.038001
43.51 	0.037916 	3877 	0.037916
43.55 	0.045209 	2964 	0.044814
43.59 	0.034937 	1746 	0.034266
43.63 	0.034965 	1001 	0.034380
43.67 	0.041833 	502 	0.041833
43.71 	0.037657 	239 	0.037657
43.75 	0.062500 	16 	0.062500