File: Example_Data/25SC_s1_0033.003.dat
#F C:\frames\spec\25SC_s1_0033.003
#C title =s:33 frm:3 25SC_s1
#C wavelength =0.15406

#S 1  fr_average C:\frames\spec\25SC_s1_0033.003 C:\win32app\speccom\mask.axs chi 0 180 0 360 0.02
#C 2 theta =0.000000 to 180 deg
#C   q   =0.000000 to 81.568 nm^-1
#C  chi  =0.000000 to 360 deg
#C collumns:
#C  1 position (2theta or chi in degrees)
#C  2 average intensity (sum of all counts in the region divided with number of pixels)
#C  3 Number of pixels in region)
#C  4 error (sum of sqrt(intensity) for all pixels divided by number)
#N 4
#L TTh  Int  N_pix  Err
32.99 	0.131148 	61 	0.121544
33.03 	0.066858 	1391 	0.064683
33.07 	0.050244 	2050 	0.048815
33.11 	0.050019 	2579 	0.049338
33.15 	0.068690 	2999 	0.066314
33.19 	0.059545 	3342 	0.057968
33.23 	0.052228 	3523 	0.051397
33.27 	0.056474 	3630 	0.055506
33.31 	0.062295 	3660 	0.061015
33.35 	0.059015 	3694 	0.058063
33.39 	0.056584 	3729 	0.055144
33.43 	0.056900 	3761 	0.056121
33.47 	0.062928 	3798 	0.061823
33.51 	0.058191 	3815 	0.057577
33.55 	0.058808 	3843 	0.057869
33.59 	0.057732 	3880 	0.056524
33.63 	0.063281 	3919 	0.061637
33.67 	0.062721 	3954 	0.061388
33.71 	0.057107 	3975 	0.056075
33.75 	0.064266 	3999 	0.063534
33.79 	0.060134 	4041 	0.059119
33.83 	0.065926 	4050 	0.064913
33.87 	0.059353 	4111 	0.058213
33.91 	0.058809 	4149 	0.057821
33.95 	0.062425 	4181 	0.061304
33.99 	0.054048 	4200 	0.053629
34.03 	0.049953 	4244 	0.049539
34.07 	0.058575 	4268 	0.057752
34.11 	0.058810 	4302 	0.058265
34.15 	0.056338 	4331 	0.055121
34.19 	0.059835 	4362 	0.058358
34.23 	0.057364 	4393 	0.056564
34.27 	0.059475 	4422 	0.058681
34.31 	0.053611 	4458 	0.052823
34.35 	0.058653 	4484 	0.056955
34.39 	0.051088 	4502 	0.050178
34.43 	0.057281 	4539 	0.055991
34.47 	0.053571 	4592 	0.052678
34.51 	0.058402 	4606 	0.057130
34.55 	0.059229 	4643 	0.057967
34.59 	0.062460 	4675 	0.061207
34.63 	0.063482 	4710 	0.062363
34.67 	0.060536 	4741 	0.059424
34.71 	0.060428 	4766 	0.059445
34.75 	0.056156 	4808 	0.055547
34.79 	0.052032 	4824 	0.050696
34.83 	0.055121 	4862 	0.054037
34.87 	0.053821 	4868 	0.052497
34.91 	0.056534 	4882 	0.055814
34.95 	0.049489 	4890 	0.048890
34.99 	0.061058 	4897 	0.059622
35.03 	0.055432 	4943 	0.054602
35.07 	0.058097 	4940 	0.057267
35.11 	0.057004 	4947 	0.056175
35.15 	0.056715 	4937 	0.055765
35.19 	0.060097 	4942 	0.058793
35.23 	0.058847 	4945 	0.058255
35.27 	0.051738 	4948 	0.050791
35.31 	0.053517 	4933 	0.052923
35.35 	0.054836 	4942 	0.054362
35.39 	0.056016 	4945 	0.055542
35.43 	0.056558 	4933 	0.054895
35.47 	0.049483 	4931 	0.049126
35.51 	0.063743 	4926 	0.062654
35.55 	0.053387 	4945 	0.052558
35.59 	0.059454 	4945 	0.058388
35.63 	0.060287 	4943 	0.058628
35.67 	0.055848 	4942 	0.054762
35.71 	0.052461 	4937 	0.051749
35.75 	0.061854 	4931 	0.060903
35.79 	0.053731 	4932 	0.052305
35.83 	0.058835 	4946 	0.057750
35.87 	0.056470 	4923 	0.055518
35.91 	0.057642 	4927 	0.056809
35.95 	0.056539 	4917 	0.055585
35.99 	0.057097 	4939 	0.056741
36.03 	0.057253 	4943 	0.056423
36.07 	0.044948 	4939 	0.044474
36.11 	0.052952 	4929 	0.052120
36.15 	0.053250 	4939 	0.052657
36.19 	0.051822 	4940 	0.051110
36.23 	0.055927 	4935 	0.055215
36.27 	0.053401 	4925 	0.052687
36.31 	0.051339 	4928 	0.050864
36.35 	0.054575 	4929 	0.053387
36.39 	0.052428 	4921 	0.052190
36.43 	0.055804 	4928 	0.054971
36.47 	0.054092 	4936 	0.053380
36.51 	0.056963 	4933 	0.055895
36.55 	0.052365 	4927 	0.051532
36.59 	0.055274 	4939 	0.054444
36.63 	0.051714 	4931 	0.050882
36.67 	0.051521 	4930 	0.050571
36.71 	0.048161 	4921 	0.047804
36.75 	0.054005 	4944 	0.053531
36.79 	0.052835 	4921 	0.052002
36.83 	0.052899 	4915 	0.051946
36.87 	0.054005 	4944 	0.053294
36.91 	0.049990 	4941 	0.049516
36.95 	0.050476 	4933 	0.050001
36.99 	0.054914 	4935 	0.053608
37.03 	0.054630 	4924 	0.054036
37.07 	0.051064 	4935 	0.049620
37.11 	0.050861 	4935 	0.050149
37.15 	0.051334 	4909 	0.050141
37.19 	0.054619 	4925 	0.053549
37.23 	0.053477 	4918 	0.052643
37.27 	0.052922 	4894 	0.051945
37.31 	0.053698 	4935 	0.052511
37.35 	0.048805 	4938 	0.047856
37.39 	0.047049 	4931 	0.046218
37.43 	0.048256 	4932 	0.047544
37.47 	0.051532 	4929 	0.051056
37.51 	0.049666 	4933 	0.049428
37.55 	0.053550 	4930 	0.052599
37.59 	0.047609 	4915 	0.047133
37.63 	0.053263 	4919 	0.052667
37.67 	0.057708 	4904 	0.057230
37.71 	0.054169 	4929 	0.053337
37.75 	0.045547 	4940 	0.044954
37.79 	0.050304 	4930 	0.049948
37.83 	0.050407 	4920 	0.049673
37.87 	0.051427 	4939 	0.050597
37.91 	0.048884 	4930 	0.048053
37.95 	0.050803 	4921 	0.049612
37.99 	0.047028 	4912 	0.045954
38.03 	0.049297 	4909 	0.048820
38.07 	0.056834 	4909 	0.055880
38.11 	0.052482 	4935 	0.051632
38.15 	0.051850 	4918 	0.051493
38.19 	0.054361 	4930 	0.054005
38.23 	0.054881 	4938 	0.054050
38.27 	0.050913 	4930 	0.049725
38.31 	0.059874 	4927 	0.059161
38.35 	0.058442 	4928 	0.057253
38.39 	0.065594 	4909 	0.064043
38.43 	0.058584 	4916 	0.057869
38.47 	0.051355 	4907 	0.050639
38.51 	0.056367 	4932 	0.055654
38.55 	0.058752 	4936 	0.058040
38.59 	0.052803 	4924 	0.052565
38.63 	0.054630 	4924 	0.053679
38.67 	0.053474 	4937 	0.052881
38.71 	0.050569 	4924 	0.049974
38.75 	0.047290 	4927 	0.046696
38.79 	0.049453 	4934 	0.048978
38.83 	0.053466 	4919 	0.052613
38.87 	0.053553 	4911 	0.052341
38.91 	0.055884 	4903 	0.054809
38.95 	0.048394 	4918 	0.047441
38.99 	0.048613 	4937 	0.048138
39.03 	0.050263 	4934 	0.049888
39.07 	0.053615 	4924 	0.053377
39.11 	0.043196 	4931 	0.042721
39.15 	0.050458 	4915 	0.050100
39.19 	0.042302 	4917 	0.041826
39.23 	0.047107 	4925 	0.046750
39.27 	0.047251 	4910 	0.046057
39.31 	0.052826 	4884 	0.052586
39.35 	0.043161 	4935 	0.042449
39.39 	0.045242 	4929 	0.044411
39.43 	0.045408 	4933 	0.044577
39.47 	0.048548 	4923 	0.048310
39.51 	0.046304 	4924 	0.045828
39.55 	0.051027 	4919 	0.050788
39.59 	0.047638 	4912 	0.046684
39.63 	0.048761 	4922 	0.048285
39.67 	0.045186 	4913 	0.044948
39.71 	0.044535 	4895 	0.044176
39.75 	0.050731 	4928 	0.050612
39.79 	0.049939 	4926 	0.048631
39.83 	0.048642 	4934 	0.048286
39.87 	0.038985 	4925 	0.038628
39.91 	0.046932 	4922 	0.046456
39.95 	0.050661 	4915 	0.049211
39.99 	0.049676 	4932 	0.048963
40.03 	0.047078 	4928 	0.046365
40.07 	0.044891 	4923 	0.044653
40.11 	0.047396 	4916 	0.046800
40.15 	0.046407 	4913 	0.045334
40.19 	0.044634 	4929 	0.043545
40.23 	0.045823 	4932 	0.045229
40.27 	0.044967 	4937 	0.044492
40.31 	0.042114 	4939 	0.041758
40.35 	0.040455 	4919 	0.040098
40.39 	0.050294 	4931 	0.049700
40.43 	0.047948 	4922 	0.047591
40.47 	0.044937 	4918 	0.043865
40.51 	0.049777 	4922 	0.048824
40.55 	0.038305 	4908 	0.037947
40.59 	0.041523 	4937 	0.041049
40.63 	0.045842 	4930 	0.045485
40.67 	0.050487 	4932 	0.049497
40.71 	0.041363 	4932 	0.040769
40.75 	0.042385 	4931 	0.042266
40.79 	0.042648 	4924 	0.042529
40.83 	0.045049 	4928 	0.044335
40.87 	0.044643 	4928 	0.044286
40.91 	0.043876 	4923 	0.043519
40.95 	0.046204 	4913 	0.045489
40.99 	0.042445 	4924 	0.041969
41.03 	0.043221 	4905 	0.042624
41.07 	0.045436 	4930 	0.044723
41.11 	0.041743 	4935 	0.041505
41.15 	0.044930 	4941 	0.044100
41.19 	0.042596 	4930 	0.042240
41.23 	0.042114 	4939 	0.041639
41.27 	0.047455 	4931 	0.047217
41.31 	0.041354 	4933 	0.040879
41.35 	0.036249 	4938 	0.035775
41.39 	0.041557 	4933 	0.041319
41.43 	0.038953 	4929 	0.038121
41.47 	0.039789 	4926 	0.039194
41.51 	0.043320 	4940 	0.042846
41.55 	0.040527 	4935 	0.039320
41.59 	0.040543 	4933 	0.039950
41.63 	0.044350 	4938 	0.043757
41.67 	0.042713 	4940 	0.042120
41.71 	0.038306 	4934 	0.037831
41.75 	0.043619 	4929 	0.042649
41.79 	0.038835 	4944 	0.038243
41.83 	0.040179 	4928 	0.039703
41.87 	0.043161 	4935 	0.042686
41.91 	0.043760 	4936 	0.043285
41.95 	0.040763 	4931 	0.040287
41.99 	0.040163 	4905 	0.039327
42.03 	0.041101 	4939 	0.040390
42.07 	0.040308 	4937 	0.040071
42.11 	0.041254 	4945 	0.040543
42.15 	0.044350 	4938 	0.043875
42.19 	0.040139 	4908 	0.039303
42.23 	0.038021 	4892 	0.037423
42.27 	0.039598 	4874 	0.038877
42.31 	0.040165 	4855 	0.039561
42.35 	0.042786 	4838 	0.042181
42.39 	0.038718 	4804 	0.037986
42.43 	0.037145 	4792 	0.036636
42.47 	0.039035 	4765 	0.038420
42.51 	0.044276 	4743 	0.043535
42.55 	0.044605 	4708 	0.043610
42.59 	0.041658 	4729 	0.041410
42.63 	0.040773 	4709 	0.040649
42.67 	0.039496 	4684 	0.038850
42.71 	0.036457 	4663 	0.036332
42.75 	0.041802 	4617 	0.041421
42.79 	0.037756 	4582 	0.037373
42.83 	0.040564 	4536 	0.039919
42.87 	0.038675 	4499 	0.038154
42.91 	0.042415 	4456 	0.041889
42.95 	0.040308 	4416 	0.040175
42.99 	0.042645 	4385 	0.042245
43.03 	0.039695 	4333 	0.039019
43.07 	0.042598 	4296 	0.041780
43.11 	0.040658 	4255 	0.039832
43.15 	0.038754 	4206 	0.038754
43.19 	0.045780 	4194 	0.044802
43.23 	0.041647 	4154 	0.041083
43.27 	0.038246 	4105 	0.038103
43.31 	0.036283 	4079 	0.035996
43.35 	0.035714 	4032 	0.034843
43.39 	0.042979 	4002 	0.042832
43.43 	0.043182 	3960 	0.041850
43.47 	0.036980 	3921 	0.036682
43.51 	0.038174 	3877 	0.037721
43.55 	0.041835 	2964 	0.041440
43.59 	0.042955 	1746 	0.042284
43.63 	0.038961 	1001 	0.038961
43.67 	0.057769 	502 	0.056602
43.71 	0.029289 	239 	0.029289
43.75 	0.000000 	16 	0.000000