File: Example_Data/25SC_s1_0038.000.dat
#F C:\frames\spec\25SC_s1_0038.000
#C title =s:38 frm:0 25SC_s1
#C wavelength =0.15406

#S 1  fr_average C:\frames\spec\25SC_s1_0038.000 C:\win32app\speccom\mask.axs chi 0 180 0 360 0.02
#C 2 theta =0.000000 to 180 deg
#C   q   =0.000000 to 81.568 nm^-1
#C  chi  =0.000000 to 360 deg
#C collumns:
#C  1 position (2theta or chi in degrees)
#C  2 average intensity (sum of all counts in the region divided with number of pixels)
#C  3 Number of pixels in region)
#C  4 error (sum of sqrt(intensity) for all pixels divided by number)
#N 4
#L TTh  Int  N_pix  Err
32.99 	0.032787 	61 	0.032787
33.03 	0.061826 	1391 	0.061826
33.07 	0.065854 	2050 	0.063853
33.11 	0.060489 	2579 	0.060034
33.15 	0.065022 	2999 	0.064240
33.19 	0.060443 	3342 	0.059362
33.23 	0.052512 	3523 	0.051847
33.27 	0.052342 	3630 	0.051535
33.31 	0.062295 	3660 	0.061655
33.35 	0.060097 	3694 	0.059146
33.39 	0.061411 	3729 	0.060782
33.43 	0.059825 	3761 	0.058890
33.47 	0.059505 	3798 	0.058271
33.51 	0.061599 	3815 	0.060038
33.55 	0.058028 	3843 	0.057265
33.59 	0.062371 	3880 	0.061163
33.63 	0.050778 	3919 	0.050031
33.67 	0.054881 	3954 	0.053251
33.71 	0.056855 	3975 	0.055505
33.75 	0.059515 	3999 	0.058758
33.79 	0.060876 	4041 	0.059281
33.83 	0.061975 	4050 	0.061252
33.87 	0.059839 	4111 	0.058842
33.91 	0.058327 	4149 	0.057480
33.95 	0.058120 	4181 	0.057116
33.99 	0.056429 	4200 	0.055871
34.03 	0.051131 	4244 	0.050441
34.07 	0.063964 	4268 	0.062981
34.11 	0.059507 	4302 	0.058826
34.15 	0.057492 	4331 	0.056140
34.19 	0.063503 	4362 	0.062272
34.23 	0.056226 	4393 	0.055292
34.27 	0.053822 	4422 	0.052630
34.31 	0.057425 	4458 	0.056768
34.35 	0.057092 	4484 	0.055633
34.39 	0.058641 	4502 	0.057730
34.43 	0.059925 	4539 	0.058893
34.47 	0.059451 	4592 	0.058686
34.51 	0.061442 	4606 	0.060297
34.55 	0.058583 	4643 	0.057069
34.59 	0.059893 	4675 	0.059141
34.63 	0.056476 	4710 	0.055854
34.67 	0.060536 	4741 	0.059053
34.71 	0.061267 	4766 	0.060653
34.75 	0.061356 	4808 	0.060991
34.79 	0.059080 	4824 	0.057865
34.83 	0.057178 	4862 	0.056455
34.87 	0.049507 	4868 	0.048544
34.91 	0.060016 	4882 	0.058457
34.95 	0.052556 	4890 	0.051957
34.99 	0.058403 	4897 	0.058044
35.03 	0.057050 	4943 	0.056339
35.07 	0.058907 	4940 	0.058195
35.11 	0.055185 	4947 	0.054119
35.15 	0.063601 	4937 	0.062889
35.19 	0.070619 	4942 	0.068960
35.23 	0.057230 	4945 	0.055926
35.27 	0.054163 	4948 	0.053571
35.31 	0.058382 	4933 	0.057076
35.35 	0.057669 	4942 	0.056839
35.39 	0.053792 	4945 	0.052962
35.43 	0.062437 	4933 	0.060873
35.47 	0.055770 	4931 	0.055413
35.51 	0.061104 	4926 	0.060510
35.55 	0.057027 	4945 	0.056553
35.59 	0.057230 	4945 	0.056282
35.63 	0.057455 	4943 	0.056388
35.67 	0.053622 	4942 	0.052674
35.71 	0.057525 	4937 	0.056576
35.75 	0.058203 	4931 	0.057015
35.79 	0.060624 	4932 	0.059674
35.83 	0.062273 	4946 	0.061207
35.87 	0.053626 	4923 	0.053150
35.91 	0.053988 	4927 	0.053513
35.95 	0.054098 	4917 	0.052788
35.99 	0.055679 	4939 	0.053881
36.03 	0.059883 	4943 	0.058816
36.07 	0.059526 	4939 	0.058577
36.11 	0.060459 	4929 	0.059389
36.15 	0.054869 	4939 	0.054039
36.19 	0.056883 	4940 	0.056053
36.23 	0.061601 	4935 	0.060889
36.27 	0.062538 	4925 	0.061943
36.31 	0.059862 	4928 	0.058673
36.35 	0.058227 	4929 	0.056920
36.39 	0.054054 	4921 	0.052983
36.43 	0.060674 	4928 	0.059842
36.47 	0.058549 	4936 	0.057837
36.51 	0.055747 	4933 	0.055035
36.55 	0.056830 	4927 	0.055997
36.59 	0.052440 	4939 	0.051847
36.63 	0.059014 	4931 	0.058420
36.67 	0.056187 	4930 	0.054761
36.71 	0.060150 	4921 	0.058345
36.75 	0.059668 	4944 	0.058246
36.79 	0.059541 	4921 	0.058588
36.83 	0.059410 	4915 	0.058099
36.87 	0.055218 	4944 	0.053777
36.91 	0.053026 	4941 	0.051603
36.95 	0.059801 	4933 	0.058713
36.99 	0.064032 	4935 	0.062351
37.03 	0.059098 	4924 	0.058603
37.07 	0.052685 	4935 	0.052210
37.11 	0.059372 	4935 	0.058660
37.15 	0.055001 	4909 	0.053569
37.19 	0.056447 	4925 	0.055376
37.23 	0.062424 	4918 	0.061471
37.27 	0.053739 	4894 	0.053121
37.31 	0.057953 	4935 	0.057360
37.35 	0.054070 	4938 	0.053121
37.39 	0.056175 	4931 	0.055443
37.43 	0.055353 	4932 	0.054165
37.47 	0.059647 	4929 	0.058934
37.51 	0.054531 	4933 	0.053462
37.55 	0.054361 	4930 	0.053410
37.59 	0.051882 	4915 	0.051405
37.63 	0.054076 	4919 	0.052746
37.67 	0.054241 	4904 	0.053764
37.71 	0.059850 	4929 	0.058661
37.75 	0.053036 	4940 	0.051594
37.79 	0.052738 	4930 	0.052144
37.83 	0.054675 	4920 	0.053941
37.87 	0.057502 	4939 	0.056434
37.91 	0.059026 	4930 	0.058195
37.95 	0.055477 	4921 	0.054762
37.99 	0.049471 	4912 	0.048517
38.03 	0.056020 	4909 	0.054826
38.07 	0.054797 	4909 	0.053485
38.11 	0.063019 	4935 	0.062070
38.15 	0.057340 	4918 	0.056387
38.19 	0.060041 	4930 	0.058714
38.23 	0.067436 	4938 	0.066468
38.27 	0.068154 	4930 	0.066966
38.31 	0.075299 	4927 	0.073635
38.35 	0.073864 	4928 	0.072418
38.39 	0.075983 	4909 	0.075028
38.43 	0.082181 	4916 	0.079559
38.47 	0.085796 	4907 	0.083647
38.51 	0.082928 	4932 	0.080434
38.55 	0.080227 	4936 	0.077616
38.59 	0.079813 	4924 	0.077553
38.63 	0.070471 	4924 	0.069282
38.67 	0.073932 	4937 	0.072745
38.71 	0.068846 	4924 	0.067657
38.75 	0.066369 	4927 	0.065636
38.79 	0.059992 	4934 	0.059517
38.83 	0.054686 	4919 	0.053852
38.87 	0.058644 	4911 	0.057928
38.91 	0.053233 	4903 	0.052396
38.95 	0.054494 	4918 	0.054017
38.99 	0.052461 	4937 	0.051630
39.03 	0.052088 	4934 	0.051138
39.07 	0.048335 	4924 	0.047621
39.11 	0.044007 	4931 	0.043532
39.15 	0.054730 	4915 	0.054135
39.19 	0.050234 	4917 	0.049043
39.23 	0.049137 	4925 	0.048186
39.27 	0.048065 	4910 	0.047707
39.31 	0.046478 	4884 	0.045519
39.35 	0.044174 	4935 	0.042987
39.39 	0.043822 	4929 	0.043585
39.43 	0.047638 	4933 	0.046570
39.47 	0.046110 	4923 	0.045515
39.51 	0.042445 	4924 	0.041969
39.55 	0.050417 	4919 	0.049821
39.59 	0.043770 	4912 	0.043413
39.63 	0.047338 	4922 	0.046981
39.67 	0.041522 	4913 	0.041165
39.71 	0.045761 	4895 	0.045282
39.75 	0.046469 	4928 	0.045994
39.79 	0.047706 	4926 	0.046993
39.83 	0.040130 	4934 	0.039655
39.87 	0.050152 	4925 	0.049558
39.91 	0.049777 	4922 	0.049419
39.95 	0.044964 	4915 	0.044607
39.99 	0.046634 	4932 	0.045684
40.03 	0.039570 	4928 	0.039094
40.07 	0.043469 	4923 	0.043350
40.11 	0.042514 	4916 	0.041184
40.15 	0.044576 	4913 	0.044337
40.19 	0.041996 	4929 	0.041521
40.23 	0.049067 	4932 	0.048711
40.27 	0.044561 	4937 	0.043850
40.31 	0.042924 	4939 	0.042568
40.35 	0.043911 	4919 	0.043435
40.39 	0.046238 	4931 	0.045882
40.43 	0.041040 	4922 	0.040445
40.47 	0.038430 	4918 	0.038073
40.51 	0.037790 	4922 	0.037551
40.55 	0.037897 	4908 	0.037301
40.59 	0.043144 	4937 	0.042788
40.63 	0.040568 	4930 	0.040211
40.67 	0.045012 	4932 	0.043824
40.71 	0.043593 	4932 	0.042761
40.75 	0.041371 	4931 	0.040045
40.79 	0.041633 	4924 	0.041157
40.83 	0.040990 	4928 	0.039920
40.87 	0.039773 	4928 	0.039178
40.91 	0.035547 	4923 	0.035190
40.95 	0.044983 	4913 	0.044267
40.99 	0.035337 	4924 	0.035099
41.03 	0.036493 	4905 	0.036016
41.07 	0.042596 	4930 	0.042002
41.11 	0.037690 	4935 	0.037334
41.15 	0.043311 	4941 	0.042244
41.19 	0.035497 	4930 	0.035140
41.23 	0.043329 	4939 	0.042973
41.27 	0.044818 	4931 	0.044343
41.31 	0.042976 	4933 	0.042382
41.35 	0.043337 	4938 	0.043337
41.39 	0.042976 	4933 	0.042501
41.43 	0.040373 	4929 	0.039898
41.47 	0.041210 	4926 	0.040853
41.51 	0.038259 	4940 	0.037548
41.55 	0.040122 	4935 	0.039884
41.59 	0.044192 	4933 	0.043480
41.63 	0.039692 	4938 	0.038980
41.67 	0.044130 	4940 	0.043537
41.71 	0.038306 	4934 	0.038068
41.75 	0.042199 	4929 	0.041724
41.79 	0.038228 	4944 	0.037399
41.83 	0.038149 	4928 	0.037793
41.87 	0.033232 	4935 	0.032876
41.91 	0.038290 	4936 	0.038053
41.95 	0.036909 	4931 	0.036672
41.99 	0.039755 	4905 	0.039517
42.03 	0.038267 	4939 	0.037792
42.07 	0.037675 	4937 	0.036844
42.11 	0.035794 	4945 	0.035557
42.15 	0.037262 	4938 	0.037143
42.19 	0.035860 	4908 	0.035740
42.23 	0.037204 	4892 	0.037084
42.27 	0.036520 	4874 	0.035919
42.31 	0.033368 	4855 	0.033126
42.35 	0.044440 	4838 	0.044319
42.39 	0.037052 	4804 	0.036809
42.43 	0.030050 	4792 	0.029561
42.47 	0.040714 	4765 	0.040222
42.51 	0.035842 	4743 	0.035101
42.55 	0.041419 	4708 	0.040921
42.59 	0.042504 	4729 	0.041616
42.63 	0.039924 	4709 	0.039799
42.67 	0.039923 	4684 	0.039423
42.71 	0.041604 	4663 	0.041081
42.75 	0.033138 	4617 	0.032885
42.79 	0.037320 	4582 	0.036809
42.83 	0.034612 	4536 	0.034483
42.87 	0.037564 	4499 	0.037173
42.91 	0.035233 	4456 	0.034970
42.95 	0.029891 	4416 	0.029759
42.99 	0.036488 	4385 	0.036087
43.03 	0.035541 	4333 	0.035271
43.07 	0.034683 	4296 	0.034547
43.11 	0.039013 	4255 	0.038600
43.15 	0.033524 	4206 	0.032944
43.19 	0.039580 	4194 	0.039301
43.23 	0.036832 	4154 	0.036550
43.27 	0.037515 	4105 	0.037373
43.31 	0.036283 	4079 	0.036283
43.35 	0.038194 	4032 	0.037759
43.39 	0.035482 	4002 	0.035043
43.43 	0.042677 	3960 	0.042381
43.47 	0.040041 	3921 	0.039742
43.51 	0.034047 	3877 	0.033896
43.55 	0.040148 	2964 	0.039358
43.59 	0.033792 	1746 	0.033456
43.63 	0.032967 	1001 	0.032967
43.67 	0.035857 	502 	0.035857
43.71 	0.054393 	239 	0.054393
43.75 	0.000000 	16 	0.000000