File: Example_Data/25SC_s1_0004.002.dat
#F C:\frames\spec\25SC_s1_0004.002
#C title =s:4 frm:2 25SC_s1
#C wavelength =0.15406

#S 1  fr_average C:\frames\spec\25SC_s1_0004.002 C:\win32app\speccom\mask.axs chi 0 180 0 360 0.02
#C 2 theta =0.000000 to 180 deg
#C   q   =0.000000 to 81.568 nm^-1
#C  chi  =0.000000 to 360 deg
#C collumns:
#C  1 position (2theta or chi in degrees)
#C  2 average intensity (sum of all counts in the region divided with number of pixels)
#C  3 Number of pixels in region)
#C  4 error (sum of sqrt(intensity) for all pixels divided by number)
#N 4
#L TTh  Int  N_pix  Err
32.99 	0.032787 	61 	0.032787
33.03 	0.051761 	1391 	0.050919
33.07 	0.060976 	2050 	0.059547
33.11 	0.056999 	2579 	0.055863
33.15 	0.054351 	2999 	0.053765
33.19 	0.057451 	3342 	0.056224
33.23 	0.057621 	3523 	0.056624
33.27 	0.054270 	3630 	0.053302
33.31 	0.059016 	3660 	0.057736
33.35 	0.054683 	3694 	0.053890
33.39 	0.052025 	3729 	0.051082
33.43 	0.061686 	3761 	0.060284
33.47 	0.061875 	3798 	0.060795
33.51 	0.060550 	3815 	0.059783
33.55 	0.059329 	3843 	0.058414
33.59 	0.061856 	3880 	0.060497
33.63 	0.054861 	3919 	0.054089
33.67 	0.057410 	3954 	0.056373
33.71 	0.056604 	3975 	0.055277
33.75 	0.062016 	3999 	0.060844
33.79 	0.066568 	4041 	0.065553
33.83 	0.062222 	4050 	0.060776
33.87 	0.061299 	4111 	0.060871
33.91 	0.061702 	4149 	0.060854
33.95 	0.062186 	4181 	0.061486
33.99 	0.056190 	4200 	0.054773
34.03 	0.059849 	4244 	0.059159
34.07 	0.056701 	4268 	0.055740
34.11 	0.060669 	4302 	0.059852
34.15 	0.060032 	4331 	0.059063
34.19 	0.058230 	4362 	0.056753
34.23 	0.061234 	4393 	0.060700
34.27 	0.058118 	4422 	0.057456
34.31 	0.063930 	4458 	0.063142
34.35 	0.058653 	4484 	0.057216
34.39 	0.060418 	4502 	0.059377
34.43 	0.053536 	4539 	0.052891
34.47 	0.060105 	4592 	0.059849
34.51 	0.060790 	4606 	0.059518
34.55 	0.061383 	4643 	0.060121
34.59 	0.060749 	4675 	0.059621
34.63 	0.056688 	4710 	0.056066
34.67 	0.058637 	4741 	0.057525
34.71 	0.060848 	4766 	0.060110
34.75 	0.056988 	4808 	0.056014
34.79 	0.055348 	4824 	0.054498
34.83 	0.056355 	4862 	0.055271
34.87 	0.059367 	4868 	0.058645
34.91 	0.061245 	4882 	0.060046
34.95 	0.061554 	4890 	0.060356
34.99 	0.055340 	4897 	0.054503
35.03 	0.053813 	4943 	0.052747
35.07 	0.061741 	4940 	0.060279
35.11 	0.054174 	4947 	0.053701
35.15 	0.055297 	4937 	0.054565
35.19 	0.057062 	4942 	0.056114
35.23 	0.057836 	4945 	0.056533
35.27 	0.064470 	4948 	0.063523
35.31 	0.053112 	4933 	0.052399
35.35 	0.054634 	4942 	0.054041
35.39 	0.050556 	4945 	0.050201
35.43 	0.056152 	4933 	0.055796
35.47 	0.062868 	4931 	0.062274
35.51 	0.058465 	4926 	0.057633
35.55 	0.055005 	4945 	0.053939
35.59 	0.057230 	4945 	0.055315
35.63 	0.056848 	4943 	0.056019
35.67 	0.059692 	4942 	0.058981
35.71 	0.056107 	4937 	0.055395
35.75 	0.055567 	4931 	0.054498
35.79 	0.058394 	4932 	0.057206
35.83 	0.058633 	4946 	0.057666
35.87 	0.061142 	4923 	0.059833
35.91 	0.058047 	4927 	0.056977
35.95 	0.054708 	4917 	0.053855
35.99 	0.056894 	4939 	0.055708
36.03 	0.064536 	4943 	0.062719
36.07 	0.056692 	4939 	0.055506
36.11 	0.056198 	4929 	0.055128
36.15 	0.058311 	4939 	0.057363
36.19 	0.064575 	4940 	0.062895
36.23 	0.058967 	4935 	0.057542
36.27 	0.055228 	4925 	0.053920
36.31 	0.059253 	4928 	0.057827
36.35 	0.062893 	4929 	0.061823
36.39 	0.057712 	4921 	0.056879
36.43 	0.058036 	4928 	0.057204
36.47 	0.063209 	4936 	0.062378
36.51 	0.061423 	4933 	0.060829
36.55 	0.057642 	4927 	0.056572
36.59 	0.059526 	4939 	0.058340
36.63 	0.058406 	4931 	0.057574
36.67 	0.061663 	4930 	0.061307
36.71 	0.059541 	4921 	0.058231
36.75 	0.056230 	4944 	0.055163
36.79 	0.057509 	4921 	0.056398
36.83 	0.060427 	4915 	0.059235
36.87 	0.057848 	4944 	0.056881
36.91 	0.054645 	4941 	0.054289
36.95 	0.057977 	4933 	0.057027
36.99 	0.065451 	4935 	0.064026
37.03 	0.059301 	4924 	0.058350
37.07 	0.056940 	4935 	0.055872
37.11 	0.052280 	4935 	0.051805
37.15 	0.057649 	4909 	0.057053
37.19 	0.060914 	4925 	0.059367
37.23 	0.056120 	4918 	0.055287
37.27 	0.056191 	4894 	0.055473
37.31 	0.059777 	4935 	0.058946
37.35 	0.058323 	4938 	0.057374
37.39 	0.058406 	4931 	0.056980
37.43 	0.054136 	4932 	0.054017
37.47 	0.056401 	4929 	0.055094
37.51 	0.051287 	4933 	0.050694
37.55 	0.057201 	4930 	0.056250
37.59 	0.056562 	4915 	0.055708
37.63 	0.054279 	4919 	0.053684
37.67 	0.049144 	4904 	0.048307
37.71 	0.055589 	4929 	0.054520
37.75 	0.050202 	4940 	0.049728
37.79 	0.050710 	4930 	0.050116
37.83 	0.054472 	4920 	0.053638
37.87 	0.054262 	4939 	0.053294
37.91 	0.055578 	4930 	0.054390
37.95 	0.055477 	4921 	0.054881
37.99 	0.054560 	4912 	0.053706
38.03 	0.057446 	4909 	0.056849
38.07 	0.054186 	4909 	0.053470
38.11 	0.058561 	4935 	0.057730
38.15 	0.058560 	4918 	0.058084
38.19 	0.052535 	4930 	0.051704
38.23 	0.055691 	4938 	0.054979
38.27 	0.058824 	4930 	0.058111
38.31 	0.060280 	4927 	0.059567
38.35 	0.057427 	4928 	0.056357
38.39 	0.067223 	4909 	0.066507
38.43 	0.059601 	4916 	0.058152
38.47 	0.068474 	4907 	0.066802
38.51 	0.059813 	4932 	0.058745
38.55 	0.068679 	4936 	0.067967
38.59 	0.066003 	4924 	0.065052
38.63 	0.065800 	4924 	0.064234
38.67 	0.057525 	4937 	0.056220
38.71 	0.058286 	4924 	0.057096
38.75 	0.052770 	4927 	0.051700
38.79 	0.052290 	4934 	0.051459
38.83 	0.052653 	4919 	0.051938
38.87 	0.047852 	4911 	0.047732
38.91 	0.046910 	4903 	0.046313
38.95 	0.050630 	4918 	0.049797
38.99 	0.049828 	4937 	0.048997
39.03 	0.046615 	4934 	0.046378
39.07 	0.050569 	4924 	0.049855
39.11 	0.049280 	4931 	0.048567
39.15 	0.049237 	4915 	0.048999
39.19 	0.049624 	4917 	0.049385
39.23 	0.050761 	4925 	0.050048
39.27 	0.045418 	4910 	0.044821
39.31 	0.043817 	4884 	0.043217
39.35 	0.047214 	4935 	0.046502
39.39 	0.048691 	4929 	0.047365
39.43 	0.050071 	4933 	0.049358
39.47 	0.048141 	4923 	0.048022
39.51 	0.045288 	4924 	0.044694
39.55 	0.044521 	4919 	0.043807
39.59 	0.048249 	4912 	0.047534
39.63 	0.046323 	4922 	0.045847
39.67 	0.040098 	4913 	0.039502
39.71 	0.048621 	4895 	0.048142
39.75 	0.048498 	4928 	0.047785
39.79 	0.049330 	4926 	0.048498
39.83 	0.044994 	4934 	0.044400
39.87 	0.042843 	4925 	0.042129
39.91 	0.050996 	4922 	0.050162
39.95 	0.049237 	4915 	0.048522
39.99 	0.048459 	4932 	0.047509
40.03 	0.046875 	4928 	0.046162
40.07 	0.045094 	4923 	0.044500
40.11 	0.050854 	4916 	0.049901
40.15 	0.046000 	4913 	0.045523
40.19 	0.041185 	4929 	0.040828
40.23 	0.045418 	4932 	0.044824
40.27 	0.045574 	4937 	0.045100
40.31 	0.044341 	4939 	0.043392
40.35 	0.047571 	4919 	0.047213
40.39 	0.044210 	4931 	0.043379
40.43 	0.041243 	4922 	0.040529
40.47 	0.045140 	4918 	0.044545
40.51 	0.045713 	4922 	0.045237
40.55 	0.043806 	4908 	0.043329
40.59 	0.045372 	4937 	0.044897
40.63 	0.044016 	4930 	0.043422
40.67 	0.043390 	4932 	0.042915
40.71 	0.042174 	4932 	0.041817
40.75 	0.044413 	4931 	0.043938
40.79 	0.043461 	4924 	0.043223
40.83 	0.044643 	4928 	0.044286
40.87 	0.041193 	4928 	0.040718
40.91 	0.038594 	4923 	0.037880
40.95 	0.050071 	4913 	0.048998
40.99 	0.045695 	4924 	0.045338
41.03 	0.048318 	4905 	0.047124
41.07 	0.041785 	4930 	0.041310
41.11 	0.042553 	4935 	0.041960
41.15 	0.046549 	4941 	0.045344
41.19 	0.040974 	4930 	0.040855
41.23 	0.042519 	4939 	0.042163
41.27 	0.045427 	4931 	0.044952
41.31 	0.043179 	4933 	0.042822
41.35 	0.038477 	4938 	0.038358
41.39 	0.045408 	4933 	0.044933
41.43 	0.040576 	4929 	0.040101
41.47 	0.042631 	4926 	0.042155
41.51 	0.046154 	4940 	0.046035
41.55 	0.042958 	4935 	0.042246
41.59 	0.045206 	4933 	0.044850
41.63 	0.045160 	4938 	0.044448
41.67 	0.045142 	4940 	0.044430
41.71 	0.043170 	4934 	0.042695
41.75 	0.041388 	4929 	0.041150
41.79 	0.043083 	4944 	0.042372
41.83 	0.041802 	4928 	0.041089
41.87 	0.043566 	4935 	0.042735
41.91 	0.043963 	4936 	0.043369
41.95 	0.039951 	4931 	0.039714
41.99 	0.042610 	4905 	0.041654
42.03 	0.039482 	4939 	0.038770
42.07 	0.039093 	4937 	0.038974
42.11 	0.042669 	4945 	0.041959
42.15 	0.041110 	4938 	0.040873
42.19 	0.041769 	4908 	0.041172
42.23 	0.046402 	4892 	0.045923
42.27 	0.042881 	4874 	0.042159
42.31 	0.042636 	4855 	0.042274
42.35 	0.039479 	4838 	0.038995
42.39 	0.039134 	4804 	0.038260
42.43 	0.040902 	4792 	0.040290
42.47 	0.041553 	4765 	0.041061
42.51 	0.040270 	4743 	0.039776
42.55 	0.035047 	4708 	0.034425
42.59 	0.042504 	4729 	0.042132
42.63 	0.037163 	4709 	0.037038
42.67 	0.038856 	4684 	0.038480
42.71 	0.037958 	4663 	0.037582
42.75 	0.038986 	4617 	0.038225
42.79 	0.038848 	4582 	0.038336
42.83 	0.037478 	4536 	0.037091
42.87 	0.036897 	4499 	0.036637
42.91 	0.038824 	4456 	0.038430
42.95 	0.040534 	4416 	0.040402
42.99 	0.032611 	4385 	0.032210
43.03 	0.036464 	4333 	0.036059
43.07 	0.037011 	4296 	0.036466
43.11 	0.044418 	4255 	0.044005
43.15 	0.040894 	4206 	0.040337
43.19 	0.048164 	4194 	0.047605
43.23 	0.042610 	4154 	0.041904
43.27 	0.039951 	4105 	0.039809
43.31 	0.041677 	4079 	0.041246
43.35 	0.038442 	4032 	0.037861
43.39 	0.039730 	4002 	0.038998
43.43 	0.037121 	3960 	0.036677
43.47 	0.041571 	3921 	0.041123
43.51 	0.041527 	3877 	0.041527
43.55 	0.047233 	2964 	0.046213
43.59 	0.034364 	1746 	0.033693
43.63 	0.041958 	1001 	0.041958
43.67 	0.043825 	502 	0.042658
43.71 	0.016736 	239 	0.016736
43.75 	0.000000 	16 	0.000000