File: Example_Data/25SC_s1_0014.001.dat
#F C:\frames\spec\25SC_s1_0014.001
#C title =s:14 frm:1 25SC_s1
#C wavelength =0.15406

#S 1  fr_average C:\frames\spec\25SC_s1_0014.001 C:\win32app\speccom\mask.axs chi 0 180 0 360 0.02
#C 2 theta =0.000000 to 180 deg
#C   q   =0.000000 to 81.568 nm^-1
#C  chi  =0.000000 to 360 deg
#C collumns:
#C  1 position (2theta or chi in degrees)
#C  2 average intensity (sum of all counts in the region divided with number of pixels)
#C  3 Number of pixels in region)
#C  4 error (sum of sqrt(intensity) for all pixels divided by number)
#N 4
#L TTh  Int  N_pix  Err
32.99 	0.032787 	61 	0.032787
33.03 	0.054637 	1391 	0.052531
33.07 	0.055610 	2050 	0.053895
33.11 	0.070182 	2579 	0.069501
33.15 	0.057686 	2999 	0.056709
33.19 	0.049671 	3342 	0.048619
33.23 	0.059041 	3523 	0.058043
33.27 	0.060882 	3630 	0.059752
33.31 	0.060656 	3660 	0.059375
33.35 	0.062805 	3694 	0.061536
33.39 	0.058461 	3729 	0.057518
33.43 	0.058495 	3761 	0.057093
33.47 	0.063718 	3798 	0.062792
33.51 	0.051638 	3815 	0.051331
33.55 	0.065574 	3843 	0.064507
33.59 	0.053093 	3880 	0.052338
33.63 	0.060475 	3919 	0.059279
33.67 	0.055640 	3954 	0.054751
33.71 	0.061887 	3975 	0.061003
33.75 	0.058015 	3999 	0.056989
33.79 	0.061371 	4041 	0.060211
33.83 	0.054321 	4050 	0.053309
33.87 	0.065434 	4111 	0.064128
33.91 	0.052543 	4149 	0.051249
33.95 	0.061947 	4181 	0.060826
33.99 	0.056905 	4200 	0.056068
34.03 	0.053487 	4244 	0.053073
34.07 	0.066542 	4268 	0.065855
34.11 	0.059740 	4302 	0.059059
34.15 	0.051720 	4331 	0.050751
34.19 	0.055021 	4362 	0.054752
34.23 	0.059640 	4393 	0.058707
34.27 	0.054953 	4422 	0.053363
34.31 	0.055855 	4458 	0.055329
34.35 	0.052186 	4484 	0.051250
34.39 	0.058418 	4502 	0.057247
34.43 	0.055519 	4539 	0.054745
34.47 	0.059016 	4592 	0.058123
34.51 	0.052323 	4606 	0.051687
34.55 	0.051260 	4643 	0.050629
34.59 	0.058396 	4675 	0.057749
34.63 	0.058811 	4710 	0.057940
34.67 	0.061169 	4741 	0.060304
34.71 	0.058959 	4766 	0.058345
34.75 	0.065516 	4808 	0.064541
34.79 	0.052239 	4824 	0.051146
34.83 	0.063348 	4862 	0.062866
34.87 	0.056697 	4868 	0.055614
34.91 	0.056125 	4882 	0.054905
34.95 	0.058896 	4890 	0.058536
34.99 	0.057995 	4897 	0.057038
35.03 	0.060287 	4943 	0.059102
35.07 	0.055870 	4940 	0.055040
35.11 	0.056802 	4947 	0.055954
35.15 	0.057727 	4937 	0.057134
35.19 	0.046540 	4942 	0.046184
35.23 	0.060465 	4945 	0.059873
35.27 	0.060428 	4948 	0.059955
35.31 	0.058585 	4933 	0.057279
35.35 	0.061109 	4942 	0.060023
35.39 	0.053387 	4945 	0.051966
35.43 	0.062639 	4933 	0.061571
35.47 	0.055972 	4931 	0.055022
35.51 	0.057856 	4926 	0.056905
35.55 	0.055814 	4945 	0.054629
35.59 	0.053387 	4945 	0.052558
35.63 	0.056848 	4943 	0.055900
35.67 	0.056455 	4942 	0.055862
35.71 	0.058740 	4937 	0.057791
35.75 	0.055364 	4931 	0.055245
35.79 	0.053122 	4932 	0.052766
35.83 	0.063890 	4946 	0.063179
35.87 	0.057688 	4923 	0.056360
35.91 	0.058047 	4927 	0.057215
35.95 	0.054301 	4917 	0.053467
35.99 	0.056287 	4939 	0.055200
36.03 	0.055837 	4943 	0.054987
36.07 	0.055882 	4939 	0.054933
36.11 	0.056807 	4929 	0.055737
36.15 	0.062563 	4939 	0.061614
36.19 	0.054858 	4940 	0.054265
36.23 	0.060182 	4935 	0.059351
36.27 	0.063959 	4925 	0.063365
36.31 	0.062094 	4928 	0.061143
36.35 	0.060053 	4929 	0.059577
36.39 	0.065434 	4921 	0.064601
36.43 	0.060268 	4928 	0.059198
36.47 	0.056726 	4936 	0.056607
36.51 	0.066491 	4933 	0.065165
36.55 	0.053785 	4927 	0.052359
36.59 	0.059121 	4939 	0.058172
36.63 	0.061651 	4931 	0.061156
36.67 	0.061460 	4930 	0.060153
36.71 	0.062589 	4921 	0.061399
36.75 	0.065332 	4944 	0.063791
36.79 	0.059947 	4921 	0.058638
36.83 	0.052696 	4915 	0.051862
36.87 	0.048746 	4944 	0.047561
36.91 	0.061121 	4941 	0.060054
36.95 	0.054733 	4933 	0.053902
36.99 	0.062614 	4935 	0.062139
37.03 	0.056255 	4924 	0.054946
37.07 	0.062411 	4935 	0.061224
37.11 	0.059777 	4935 	0.058590
37.15 	0.056223 	4909 	0.055865
37.19 	0.059086 	4925 	0.058492
37.23 	0.062424 	4918 	0.060994
37.27 	0.055578 	4894 	0.054860
37.31 	0.063627 	4935 	0.062203
37.35 	0.056501 	4938 	0.055196
37.39 	0.063679 	4931 	0.062372
37.43 	0.053325 	4932 	0.052613
37.47 	0.052343 	4929 	0.051511
37.51 	0.057774 	4933 	0.056587
37.55 	0.053955 	4930 	0.053104
37.59 	0.057172 	4915 	0.056695
37.63 	0.059362 	4919 	0.058647
37.67 	0.056077 	4904 	0.055479
37.71 	0.053155 	4929 	0.051590
37.75 	0.056275 	4940 	0.055327
37.79 	0.056187 	4930 	0.054860
37.83 	0.056911 	4920 	0.055958
37.87 	0.046163 	4939 	0.045333
37.91 	0.058621 	4930 	0.057195
37.95 	0.062589 	4921 	0.061518
37.99 	0.053135 	4912 	0.052658
38.03 	0.056427 	4909 	0.055711
38.07 	0.052353 	4909 	0.051398
38.11 	0.052077 	4935 	0.051721
38.15 	0.059170 	4918 	0.058218
38.19 	0.058012 	4930 	0.057062
38.23 	0.055488 	4938 	0.054420
38.27 	0.052333 	4930 	0.051481
38.31 	0.056830 	4927 	0.055641
38.35 	0.059050 	4928 	0.058099
38.39 	0.064575 	4909 	0.062885
38.43 	0.062246 	4916 	0.061511
38.47 	0.056246 	4907 	0.055052
38.51 	0.060422 	4932 	0.059828
38.55 	0.071110 	4936 	0.069211
38.59 	0.068846 	4924 	0.066467
38.63 	0.069456 	4924 	0.068147
38.67 	0.072919 	4937 	0.070902
38.71 	0.073517 	4924 	0.072209
38.75 	0.076517 	4927 	0.075447
38.79 	0.071747 	4934 	0.070797
38.83 	0.066680 	4919 	0.064993
38.87 	0.063124 	4911 	0.062408
38.91 	0.064858 	4903 	0.064261
38.95 	0.055510 	4918 	0.054319
38.99 	0.062184 	4937 	0.060740
39.03 	0.052696 	4934 	0.052102
39.07 	0.052193 	4924 	0.052074
39.11 	0.051105 	4931 	0.050155
39.15 	0.044761 	4915 	0.044284
39.19 	0.048200 	4917 	0.047585
39.23 	0.049340 	4925 	0.048864
39.27 	0.049695 	4910 	0.049098
39.31 	0.041974 	4884 	0.040995
39.35 	0.044782 	4935 	0.044189
39.39 	0.051532 	4929 	0.050819
39.43 	0.047638 	4933 	0.046194
39.47 	0.041844 	4923 	0.041725
39.51 	0.046507 	4924 	0.046150
39.55 	0.043708 	4919 	0.042636
39.59 	0.042956 	4912 	0.042598
39.63 	0.045307 	4922 	0.044950
39.67 	0.045390 	4913 	0.044913
39.71 	0.046987 	4895 	0.046388
39.75 	0.048701 	4928 	0.048345
39.79 	0.045676 	4926 	0.045081
39.83 	0.046818 	4934 	0.045730
39.87 	0.046701 	4925 	0.046106
39.91 	0.042666 	4922 	0.042071
39.95 	0.044964 	4915 	0.044249
39.99 	0.043187 	4932 	0.042712
40.03 	0.045049 	4928 	0.044098
40.07 	0.040829 	4923 	0.040353
40.11 	0.048007 	4916 	0.047292
40.15 	0.044779 	4913 	0.044183
40.19 	0.046663 	4929 	0.046425
40.23 	0.046634 	4932 	0.046040
40.27 	0.045574 	4937 	0.045218
40.31 	0.042114 	4939 	0.041758
40.35 	0.040659 	4919 	0.039944
40.39 	0.041371 	4931 	0.041252
40.43 	0.045713 	4922 	0.044999
40.47 	0.042904 	4918 	0.042189
40.51 	0.042259 	4922 	0.041902
40.55 	0.039120 	4908 	0.039000
40.59 	0.041321 	4937 	0.040965
40.63 	0.049290 	4930 	0.048696
40.67 	0.042782 	4932 	0.042307
40.71 	0.041160 	4932 	0.040803
40.75 	0.047252 	4931 	0.047014
40.79 	0.046507 	4924 	0.045912
40.83 	0.043628 	4928 	0.042440
40.87 	0.045860 	4928 	0.045504
40.91 	0.040829 	4923 	0.039758
40.95 	0.047832 	4913 	0.046382
40.99 	0.048944 	4924 	0.048349
41.03 	0.043017 	4905 	0.042540
41.07 	0.040974 	4930 	0.040380
41.11 	0.038298 	4935 	0.037942
41.15 	0.037644 	4941 	0.037289
41.19 	0.037931 	4930 	0.037218
41.23 	0.039077 	4939 	0.038721
41.27 	0.047860 	4931 	0.047385
41.31 	0.040949 	4933 	0.040117
41.35 	0.037060 	4938 	0.036941
41.39 	0.036894 	4933 	0.036419
41.43 	0.040576 	4929 	0.040101
41.47 	0.038774 	4926 	0.038655
41.51 	0.038664 	4940 	0.038427
41.55 	0.037893 	4935 	0.037537
41.59 	0.038516 	4933 	0.037922
41.63 	0.038072 	4938 	0.037835
41.67 	0.047166 	4940 	0.046455
41.71 	0.041548 	4934 	0.040955
41.75 	0.040576 	4929 	0.040457
41.79 	0.040858 	4944 	0.040265
41.83 	0.041193 	4928 	0.040837
41.87 	0.041540 	4935 	0.041184
41.91 	0.041532 	4936 	0.041294
41.95 	0.041168 	4931 	0.040574
41.99 	0.037513 	4905 	0.037274
42.03 	0.034015 	4939 	0.033541
42.07 	0.038890 	4937 	0.038415
42.11 	0.039434 	4945 	0.039059
42.15 	0.039085 	4938 	0.038492
42.19 	0.044621 	4908 	0.044144
42.23 	0.044154 	4892 	0.043416
42.27 	0.040419 	4874 	0.040178
42.31 	0.037487 	4855 	0.036884
42.35 	0.047540 	4838 	0.046208
42.39 	0.040591 	4804 	0.040225
42.43 	0.040275 	4792 	0.039909
42.47 	0.036516 	4765 	0.036270
42.51 	0.039216 	4743 	0.038845
42.55 	0.038233 	4708 	0.037611
42.59 	0.036160 	4729 	0.035912
42.63 	0.042472 	4709 	0.042099
42.67 	0.040564 	4684 	0.040439
42.71 	0.042676 	4663 	0.042048
42.75 	0.038553 	4617 	0.038299
42.79 	0.040594 	4582 	0.039827
42.83 	0.043871 	4536 	0.042967
42.87 	0.036230 	4499 	0.035579
42.91 	0.043088 	4456 	0.042299
42.95 	0.034647 	4416 	0.033851
42.99 	0.036944 	4385 	0.036543
43.03 	0.039695 	4333 	0.039155
43.07 	0.040736 	4296 	0.040736
43.11 	0.039953 	4255 	0.039678
43.15 	0.042083 	4206 	0.041943
43.19 	0.039580 	4194 	0.039301
43.23 	0.037795 	4154 	0.037795
43.27 	0.036541 	4105 	0.036398
43.31 	0.034812 	4079 	0.034238
43.35 	0.037698 	4032 	0.037263
43.39 	0.043228 	4002 	0.042497
43.43 	0.038131 	3960 	0.038131
43.47 	0.040551 	3921 	0.040401
43.51 	0.036368 	3877 	0.035915
43.55 	0.033063 	2964 	0.032668
43.59 	0.035510 	1746 	0.034839
43.63 	0.034965 	1001 	0.034965
43.67 	0.033865 	502 	0.033865
43.71 	0.046025 	239 	0.046025
43.75 	0.000000 	16 	0.000000