File: Example_Data/25SC_s1_0046.001.dat
#F C:\frames\spec\25SC_s1_0046.001
#C title =s:46 frm:1 25SC_s1
#C wavelength =0.15406

#S 1  fr_average C:\frames\spec\25SC_s1_0046.001 C:\win32app\speccom\mask.axs chi 0 180 0 360 0.02
#C 2 theta =0.000000 to 180 deg
#C   q   =0.000000 to 81.568 nm^-1
#C  chi  =0.000000 to 360 deg
#C collumns:
#C  1 position (2theta or chi in degrees)
#C  2 average intensity (sum of all counts in the region divided with number of pixels)
#C  3 Number of pixels in region)
#C  4 error (sum of sqrt(intensity) for all pixels divided by number)
#N 4
#L TTh  Int  N_pix  Err
32.99 	0.065574 	61 	0.065574
33.03 	0.065421 	1391 	0.064157
33.07 	0.065366 	2050 	0.065080
33.11 	0.049632 	2579 	0.049405
33.15 	0.054351 	2999 	0.053765
33.19 	0.054159 	3342 	0.053108
33.23 	0.060744 	3523 	0.059912
33.27 	0.060055 	3630 	0.059410
33.31 	0.058197 	3660 	0.057717
33.35 	0.057661 	3694 	0.056868
33.39 	0.061411 	3729 	0.060311
33.43 	0.064610 	3761 	0.063676
33.47 	0.053976 	3798 	0.053359
33.51 	0.063434 	3815 	0.061284
33.55 	0.056727 	3843 	0.056117
33.59 	0.067010 	3880 	0.065953
33.63 	0.057923 	3919 	0.057325
33.67 	0.057663 	3954 	0.057071
33.71 	0.052327 	3975 	0.050853
33.75 	0.061015 	3999 	0.059063
33.79 	0.054442 	4041 	0.053427
33.83 	0.052593 	4050 	0.052303
33.87 	0.059110 	4111 	0.058255
33.91 	0.057604 	4149 	0.056757
33.95 	0.055250 	4181 	0.054269
33.99 	0.059762 	4200 	0.058786
34.03 	0.058200 	4244 	0.057372
34.07 	0.054358 	4268 	0.053397
34.11 	0.056253 	4302 	0.054891
34.15 	0.057262 	4331 	0.056856
34.19 	0.054333 	4362 	0.053930
34.23 	0.057364 	4393 	0.056297
34.27 	0.057440 	4422 	0.056248
34.31 	0.053611 	4458 	0.052692
34.35 	0.057984 	4484 	0.057723
34.39 	0.058196 	4502 	0.057025
34.43 	0.056620 	4539 	0.055975
34.47 	0.057927 	4592 	0.057289
34.51 	0.053409 	4606 	0.052391
34.55 	0.054491 	4643 	0.054112
34.59 	0.055615 	4675 	0.054111
34.63 	0.056263 	4710 	0.054895
34.67 	0.054841 	4741 	0.054079
34.71 	0.054343 	4766 	0.054097
34.75 	0.057404 	4808 	0.056551
34.79 	0.054104 	4824 	0.053497
34.83 	0.061086 	4862 	0.059861
34.87 	0.058751 	4868 	0.058029
34.91 	0.054281 	4882 	0.053921
34.95 	0.055010 	4890 	0.054531
34.99 	0.054932 	4897 	0.054214
35.03 	0.057050 	4943 	0.056339
35.07 	0.055466 	4940 	0.054873
35.11 	0.062058 	4947 	0.060637
35.15 	0.054284 	4937 	0.053216
35.19 	0.051194 	4942 	0.050483
35.23 	0.056016 	4945 	0.055305
35.27 	0.055376 	4948 	0.053936
35.31 	0.059193 	4933 	0.058243
35.35 	0.058276 	4942 	0.056972
35.39 	0.058847 	4945 	0.057663
35.43 	0.053720 	4933 	0.052651
35.47 	0.054958 	4931 	0.054127
35.51 	0.054608 	4926 	0.054133
35.55 	0.050556 	4945 	0.049589
35.59 	0.063903 	4945 	0.062481
35.63 	0.054218 	4943 	0.052796
35.67 	0.061311 	4942 	0.060007
35.71 	0.051246 	4937 	0.050415
35.75 	0.055972 	4931 	0.055260
35.79 	0.057583 	4932 	0.056633
35.83 	0.055803 	4946 	0.055092
35.87 	0.055657 	4923 	0.054586
35.91 	0.051553 	4927 	0.050483
35.95 	0.051047 	4917 	0.050452
35.99 	0.056894 	4939 	0.055352
36.03 	0.056646 	4943 	0.055816
36.07 	0.059324 	4939 	0.058612
36.11 	0.067559 	4929 	0.066133
36.15 	0.066005 	4939 	0.065037
36.19 	0.057895 	4940 	0.056828
36.23 	0.057953 	4935 	0.057004
36.27 	0.057462 	4925 	0.056015
36.31 	0.051136 	4928 	0.050404
36.35 	0.061473 	4929 	0.059532
36.39 	0.053851 	4921 	0.053018
36.43 	0.054992 	4928 	0.054516
36.47 	0.057536 	4936 	0.056943
36.51 	0.057977 	4933 	0.056532
36.55 	0.057033 	4927 	0.055963
36.59 	0.056489 	4939 	0.055303
36.63 	0.053742 	4931 	0.052910
36.67 	0.051318 	4930 	0.050724
36.71 	0.050396 	4921 	0.049563
36.75 	0.054814 	4944 	0.053847
36.79 	0.058118 	4921 	0.057761
36.83 	0.054323 	4915 	0.053847
36.87 	0.055016 	4944 	0.054187
36.91 	0.056062 	4941 	0.055232
36.95 	0.059599 	4933 	0.058767
36.99 	0.060588 	4935 	0.059282
37.03 	0.056052 	4924 	0.055219
37.07 	0.059372 	4935 	0.058422
37.11 	0.057953 	4935 	0.056766
37.15 	0.059279 	4909 	0.057827
37.19 	0.056447 	4925 	0.055614
37.23 	0.050224 	4918 	0.049628
37.27 	0.053535 	4894 	0.052577
37.31 	0.055319 	4935 	0.053776
37.35 	0.051843 	4938 	0.051131
37.39 	0.060028 	4931 	0.058246
37.43 	0.054339 	4932 	0.052657
37.47 	0.051329 	4929 	0.050497
37.51 	0.053720 	4933 	0.053482
37.55 	0.051521 	4930 	0.051402
37.59 	0.053306 	4915 	0.052114
37.63 	0.056516 	4919 	0.055563
37.67 	0.053630 	4904 	0.053032
37.71 	0.055792 	4929 	0.054960
37.75 	0.056478 	4940 	0.056122
37.79 	0.059026 	4930 	0.058195
37.83 	0.054472 	4920 	0.053995
37.87 	0.047176 	4939 	0.046444
37.91 	0.051318 	4930 	0.050368
37.95 	0.054460 	4921 	0.053627
37.99 	0.057614 	4912 	0.055944
38.03 	0.058871 	4909 	0.057559
38.07 	0.053168 	4909 	0.052690
38.11 	0.057345 	4935 	0.056515
38.15 	0.055307 	4918 	0.054354
38.19 	0.058012 	4930 	0.056943
38.23 	0.058728 	4938 	0.056949
38.27 	0.061663 	4930 	0.060812
38.31 	0.069008 	4927 	0.067205
38.35 	0.068385 	4928 	0.066582
38.39 	0.073742 	4909 	0.071475
38.43 	0.070179 	4916 	0.068134
38.47 	0.083350 	4907 	0.080227
38.51 	0.077453 	4932 	0.076384
38.55 	0.071718 	4936 	0.069938
38.59 	0.073314 	4924 	0.071768
38.63 	0.066409 	4924 	0.064863
38.67 	0.066235 	4937 	0.065404
38.71 	0.058895 	4924 	0.057706
38.75 	0.058656 	4927 	0.057230
38.79 	0.054114 	4934 	0.053521
38.83 	0.054483 	4919 	0.053649
38.87 	0.058237 	4911 	0.057005
38.91 	0.048134 	4903 	0.047178
38.95 	0.054900 	4918 	0.054305
38.99 	0.053271 	4937 	0.052322
39.03 	0.050263 	4934 	0.049907
39.07 	0.045695 	4924 	0.045576
39.11 	0.043602 	4931 	0.043245
39.15 	0.044557 	4915 	0.043584
39.19 	0.046980 	4917 	0.046503
39.23 	0.049746 	4925 	0.049389
39.27 	0.049695 	4910 	0.049098
39.31 	0.043817 	4884 	0.043217
39.35 	0.043769 	4935 	0.043413
39.39 	0.046460 	4929 	0.045628
39.43 	0.042773 	4933 	0.042654
39.47 	0.037579 	4923 	0.037579
39.51 	0.046913 	4924 	0.046299
39.55 	0.043708 	4919 	0.043232
39.59 	0.050489 	4912 	0.049873
39.63 	0.045104 	4922 	0.044747
39.67 	0.047222 	4913 	0.046864
39.71 	0.045761 	4895 	0.045023
39.75 	0.043628 	4928 	0.042915
39.79 	0.047300 	4926 	0.046824
39.83 	0.041346 	4934 	0.040990
39.87 	0.039797 	4925 	0.039440
39.91 	0.041650 	4922 	0.041412
39.95 	0.038657 	4915 	0.038300
39.99 	0.038727 	4932 	0.037876
40.03 	0.042208 	4928 	0.041376
40.07 	0.041235 	4923 	0.040521
40.11 	0.044345 	4916 	0.043988
40.15 	0.040912 	4913 	0.039958
40.19 	0.045851 	4929 	0.045019
40.23 	0.040754 	4932 	0.040398
40.27 	0.041118 	4937 	0.040762
40.31 	0.043936 	4939 	0.043224
40.35 	0.033950 	4919 	0.033712
40.39 	0.039749 	4931 	0.039273
40.43 	0.042666 	4922 	0.041951
40.47 	0.050834 	4918 	0.050119
40.51 	0.041243 	4922 	0.040529
40.55 	0.042380 	4908 	0.041902
40.59 	0.048613 	4937 	0.048375
40.63 	0.038945 	4930 	0.038470
40.67 	0.039132 	4932 	0.038895
40.71 	0.039538 	4932 	0.038825
40.75 	0.042385 	4931 	0.041672
40.79 	0.042445 	4924 	0.042088
40.83 	0.040584 	4928 	0.040228
40.87 	0.039773 	4928 	0.039297
40.91 	0.041844 	4923 	0.041249
40.95 	0.040708 	4913 	0.040470
40.99 	0.042445 	4924 	0.042088
41.03 	0.039755 	4905 	0.039636
41.07 	0.043611 	4930 	0.043373
41.11 	0.040122 	4935 	0.039528
41.15 	0.040680 	4941 	0.040324
41.19 	0.038337 	4930 	0.037980
41.23 	0.043936 	4939 	0.043462
41.27 	0.041777 	4931 	0.041183
41.31 	0.038922 	4933 	0.038447
41.35 	0.041717 	4938 	0.041124
41.39 	0.041760 	4933 	0.041522
41.43 	0.040779 	4929 	0.039809
41.47 	0.039992 	4926 	0.039635
41.51 	0.039271 	4940 	0.038916
41.55 	0.038703 	4935 	0.038347
41.59 	0.037503 	4933 	0.037384
41.63 	0.038275 	4938 	0.038156
41.67 	0.038462 	4940 	0.037987
41.71 	0.041143 	4934 	0.040787
41.75 	0.033881 	4929 	0.033168
41.79 	0.042678 	4944 	0.042204
41.83 	0.035308 	4928 	0.034476
41.87 	0.037893 	4935 	0.037418
41.91 	0.038088 	4936 	0.037850
41.95 	0.038937 	4931 	0.038343
41.99 	0.035678 	4905 	0.035200
42.03 	0.036040 	4939 	0.035447
42.07 	0.037877 	4937 	0.037640
42.11 	0.040040 	4945 	0.039804
42.15 	0.044957 	4938 	0.044483
42.19 	0.039935 	4908 	0.039318
42.23 	0.039452 	4892 	0.038853
42.27 	0.039598 	4874 	0.038757
42.31 	0.039341 	4855 	0.038617
42.35 	0.039066 	4838 	0.038945
42.39 	0.040591 	4804 	0.040347
42.43 	0.039232 	4792 	0.039110
42.47 	0.040504 	4765 	0.040258
42.51 	0.045962 	4743 	0.045221
42.55 	0.035896 	4708 	0.035523
42.59 	0.030239 	4729 	0.030239
42.63 	0.038012 	4709 	0.037266
42.67 	0.035440 	4684 	0.035315
42.71 	0.039245 	4663 	0.038994
42.75 	0.040936 	4617 	0.040428
42.79 	0.032737 	4582 	0.032737
42.83 	0.035714 	4536 	0.035327
42.87 	0.034897 	4499 	0.034766
42.91 	0.033887 	4456 	0.033493
42.95 	0.040987 	4416 	0.039926
42.99 	0.039909 	4385 	0.039374
43.03 	0.042465 	4333 	0.041654
43.07 	0.036080 	4296 	0.036080
43.11 	0.035958 	4255 	0.035682
43.15 	0.036614 	4206 	0.036197
43.19 	0.034335 	4194 	0.033613
43.23 	0.033943 	4154 	0.033661
43.27 	0.034348 	4105 	0.034063
43.31 	0.038490 	4079 	0.037915
43.35 	0.032986 	4032 	0.032841
43.39 	0.035732 	4002 	0.034854
43.43 	0.037121 	3960 	0.036973
43.47 	0.046417 	3921 	0.045520
43.51 	0.037142 	3877 	0.036689
43.55 	0.040486 	2964 	0.039893
43.59 	0.032073 	1746 	0.032073
43.63 	0.034965 	1001 	0.034380
43.67 	0.035857 	502 	0.033523
43.71 	0.033473 	239 	0.033473
43.75 	0.125000 	16 	0.125000