File: Example_Data/25SC_s1_0003.001.dat
#F C:\frames\spec\25SC_s1_0003.001
#C title =s:3 frm:1 25SC_s1
#C wavelength =0.15406

#S 1  fr_average C:\frames\spec\25SC_s1_0003.001 C:\win32app\speccom\mask.axs chi 0 180 0 360 0.02
#C 2 theta =0.000000 to 180 deg
#C   q   =0.000000 to 81.568 nm^-1
#C  chi  =0.000000 to 360 deg
#C collumns:
#C  1 position (2theta or chi in degrees)
#C  2 average intensity (sum of all counts in the region divided with number of pixels)
#C  3 Number of pixels in region)
#C  4 error (sum of sqrt(intensity) for all pixels divided by number)
#N 4
#L TTh  Int  N_pix  Err
32.99 	0.032787 	61 	0.032787
33.03 	0.058231 	1391 	0.057389
33.07 	0.059024 	2050 	0.057310
33.11 	0.060876 	2579 	0.059968
33.15 	0.058019 	2999 	0.057433
33.19 	0.059545 	3342 	0.058669
33.23 	0.053647 	3523 	0.052982
33.27 	0.057025 	3630 	0.056379
33.31 	0.056284 	3660 	0.055804
33.35 	0.054954 	3694 	0.054161
33.39 	0.057388 	3729 	0.056288
33.43 	0.059293 	3761 	0.057735
33.47 	0.056872 	3798 	0.056409
33.51 	0.058453 	3815 	0.057353
33.55 	0.068176 	3843 	0.066652
33.59 	0.056443 	3880 	0.056292
33.63 	0.055882 	3919 	0.055284
33.67 	0.063480 	3954 	0.062591
33.71 	0.059371 	3975 	0.058634
33.75 	0.053013 	3999 	0.052867
33.79 	0.061866 	4041 	0.061431
33.83 	0.066173 	4050 	0.064148
33.87 	0.057893 	4111 	0.057039
33.91 	0.064112 	4149 	0.063124
33.95 	0.055489 	4181 	0.054345
33.99 	0.058571 	4200 	0.058153
34.03 	0.059849 	4244 	0.058331
34.07 	0.062324 	4268 	0.061501
34.11 	0.055091 	4302 	0.053570
34.15 	0.055645 	4331 	0.054834
34.19 	0.053416 	4362 	0.052476
34.23 	0.055771 	4393 	0.054704
34.27 	0.056988 	4422 	0.055796
34.31 	0.051144 	4458 	0.050356
34.35 	0.055754 	4484 	0.054709
34.39 	0.058196 	4502 	0.057155
34.43 	0.055519 	4539 	0.054615
34.47 	0.052700 	4592 	0.051680
34.51 	0.055145 	4606 	0.053874
34.55 	0.054275 	4643 	0.054149
34.59 	0.056471 	4675 	0.055468
34.63 	0.058599 	4710 	0.057853
34.67 	0.059481 	4741 	0.058369
34.71 	0.064834 	4766 	0.063114
34.75 	0.055948 	4808 	0.055461
34.79 	0.059287 	4824 	0.057810
34.83 	0.058412 	4862 	0.057328
34.87 	0.064297 	4868 	0.063094
34.91 	0.060221 	4882 	0.059141
34.95 	0.057260 	4890 	0.056301
34.99 	0.063508 	4897 	0.062671
35.03 	0.057050 	4943 	0.055865
35.07 	0.054858 	4940 	0.053317
35.11 	0.060845 	4947 	0.060253
35.15 	0.064817 	4937 	0.063274
35.19 	0.057669 	4942 	0.057195
35.23 	0.063498 	4945 	0.062413
35.27 	0.061237 	4948 	0.060645
35.31 	0.064058 	4933 	0.063108
35.35 	0.059692 	4942 	0.058033
35.39 	0.055005 	4945 	0.054176
35.43 	0.058382 	4933 	0.057076
35.47 	0.058406 	4931 	0.057812
35.51 	0.059074 	4926 	0.058004
35.55 	0.061881 	4945 	0.060696
35.59 	0.056218 	4945 	0.055271
35.63 	0.060894 	4943 	0.058998
35.67 	0.056657 	4942 	0.055472
35.71 	0.054487 	4937 	0.054012
35.75 	0.061854 	4931 	0.061240
35.79 	0.062247 	4932 	0.061059
35.83 	0.057622 	4946 	0.056438
35.87 	0.068048 	4923 	0.066620
35.91 	0.058656 	4927 	0.057349
35.95 	0.062436 	4917 	0.061126
35.99 	0.057906 	4939 	0.056820
36.03 	0.055230 	4943 	0.054045
36.07 	0.061551 	4939 	0.060721
36.11 	0.062690 	4929 	0.061245
36.15 	0.063778 	4939 	0.062473
36.19 	0.057895 	4940 	0.056452
36.23 	0.065653 	4935 	0.063992
36.27 	0.056853 	4925 	0.055901
36.31 	0.062703 	4928 	0.061276
36.35 	0.057618 	4929 	0.056905
36.39 	0.071733 	4921 	0.069809
36.43 	0.058239 	4928 	0.057407
36.47 	0.064222 	4936 	0.063629
36.51 	0.061626 	4933 	0.059963
36.55 	0.058859 	4927 	0.057552
36.59 	0.055882 	4939 	0.054696
36.63 	0.050497 	4931 	0.049071
36.67 	0.058824 	4930 	0.058111
36.71 	0.062182 	4921 	0.061092
36.75 	0.065736 	4944 	0.064314
36.79 	0.061979 	4921 	0.060551
36.83 	0.062869 	4915 	0.061796
36.87 	0.061691 	4944 	0.060388
36.91 	0.063550 	4941 	0.062226
36.95 	0.058382 	4933 	0.057670
36.99 	0.051469 	4935 	0.051232
37.03 	0.064785 	4924 	0.063576
37.07 	0.058764 	4935 	0.057696
37.11 	0.064032 	4935 	0.062845
37.15 	0.059483 	4909 	0.057693
37.19 	0.060305 	4925 	0.059472
37.23 	0.058967 	4918 	0.057776
37.27 	0.055374 	4894 	0.055015
37.31 	0.058156 	4935 	0.057444
37.35 	0.058323 	4938 	0.056969
37.39 	0.061245 	4931 	0.060414
37.43 	0.059205 	4932 	0.058136
37.47 	0.059850 	4929 	0.058642
37.51 	0.056558 	4933 	0.055727
37.55 	0.053955 	4930 	0.053480
37.59 	0.060224 	4915 	0.059390
37.63 	0.055092 	4919 	0.054259
37.67 	0.057504 	4904 	0.056529
37.71 	0.053966 	4929 	0.053115
37.75 	0.055668 	4940 	0.054364
37.79 	0.059229 	4930 	0.058635
37.83 	0.049187 	4920 	0.048473
37.87 	0.058716 	4939 	0.057649
37.91 	0.055172 	4930 	0.053727
37.95 	0.051616 	4921 	0.051139
37.99 	0.057818 	4912 	0.056744
38.03 	0.060094 	4909 	0.058542
38.07 	0.056223 	4909 	0.055488
38.11 	0.058764 	4935 	0.057933
38.15 	0.059984 	4918 	0.058535
38.19 	0.060243 	4930 	0.059412
38.23 	0.062778 	4938 	0.062067
38.27 	0.062677 	4930 	0.061489
38.31 	0.066775 	4927 	0.065348
38.35 	0.067979 	4928 	0.066434
38.39 	0.075168 	4909 	0.073120
38.43 	0.072213 	4916 	0.070783
38.47 	0.088445 	4907 	0.086893
38.51 	0.080495 	4932 	0.078357
38.55 	0.079619 	4936 	0.077107
38.59 	0.071487 	4924 	0.070277
38.63 	0.073721 	4924 	0.071798
38.67 	0.064006 	4937 	0.063295
38.71 	0.063160 	4924 	0.061613
38.75 	0.060889 	4927 	0.060057
38.79 	0.063437 	4934 	0.062468
38.83 	0.056922 	4919 	0.056089
38.87 	0.054775 	4911 	0.054179
38.91 	0.052417 	4903 	0.052058
38.95 	0.051850 	4918 	0.050421
38.99 	0.047397 	4937 	0.046784
39.03 	0.049858 	4934 	0.049383
39.07 	0.048944 	4924 	0.048944
39.11 	0.048874 	4931 	0.048399
39.15 	0.046999 	4915 	0.046522
39.19 	0.044539 	4917 	0.044539
39.23 	0.049137 	4925 	0.048542
39.27 	0.047251 	4910 	0.046415
39.31 	0.043407 	4884 	0.042807
39.35 	0.047619 	4935 	0.046907
39.39 	0.046054 	4929 	0.045579
39.43 	0.049057 	4933 	0.048464
39.47 	0.046313 	4923 	0.045837
39.51 	0.045491 	4924 	0.045016
39.55 	0.045538 	4919 	0.044823
39.59 	0.051507 	4912 	0.050195
39.63 	0.049573 	4922 	0.049097
39.67 	0.051292 	4913 	0.050458
39.71 	0.041879 	4895 	0.041520
39.75 	0.047484 	4928 	0.046889
39.79 	0.048721 	4926 	0.047889
39.83 	0.048034 	4934 	0.047440
39.87 	0.047310 	4925 	0.046596
39.91 	0.050386 	4922 	0.049652
39.95 	0.046796 	4915 	0.046080
39.99 	0.047445 	4932 	0.046851
40.03 	0.040179 	4928 	0.039822
40.07 	0.043673 	4923 	0.043078
40.11 	0.045362 	4916 	0.044885
40.15 	0.040912 	4913 	0.040554
40.19 	0.042199 	4929 	0.041605
40.23 	0.047040 	4932 	0.046208
40.27 	0.041118 	4937 	0.040169
40.31 	0.046366 	4939 	0.045891
40.35 	0.043911 	4919 	0.042959
40.39 	0.041574 	4931 	0.041336
40.43 	0.046932 	4922 	0.046337
40.47 	0.042294 	4918 	0.041579
40.51 	0.044088 	4922 	0.043731
40.55 	0.046659 	4908 	0.045704
40.59 	0.039498 	4937 	0.039142
40.63 	0.045639 	4930 	0.045045
40.67 	0.043796 	4932 	0.043083
40.71 	0.042782 	4932 	0.042426
40.75 	0.038735 	4931 	0.038259
40.79 	0.044882 	4924 	0.044168
40.83 	0.041802 	4928 	0.040613
40.87 	0.042005 	4928 	0.041886
40.91 	0.044891 	4923 	0.044534
40.95 	0.046204 	4913 	0.045727
40.99 	0.048132 	4924 	0.047061
41.03 	0.042406 	4905 	0.042167
41.07 	0.044422 	4930 	0.043709
41.11 	0.041743 	4935 	0.040793
41.15 	0.042906 	4941 	0.042551
41.19 	0.044828 	4930 	0.044590
41.23 	0.043936 	4939 	0.043343
41.27 	0.046035 	4931 	0.045441
41.31 	0.047030 	4933 	0.046555
41.35 	0.043135 	4938 	0.042898
41.39 	0.045003 	4933 	0.044766
41.43 	0.038953 	4929 	0.038715
41.47 	0.043443 	4926 	0.042848
41.51 	0.046154 	4940 	0.045680
41.55 	0.043566 	4935 	0.042973
41.59 	0.047436 	4933 	0.046842
41.63 	0.044147 	4938 	0.043535
41.67 	0.042510 	4940 	0.041917
41.71 	0.045602 	4934 	0.045008
41.75 	0.044634 	4929 	0.044158
41.79 	0.040251 	4944 	0.040014
41.83 	0.038149 	4928 	0.037912
41.87 	0.039919 	4935 	0.039425
41.91 	0.038898 	4936 	0.038542
41.95 	0.044007 	4931 	0.043532
41.99 	0.037920 	4905 	0.037801
42.03 	0.037862 	4939 	0.037506
42.07 	0.039498 	4937 	0.038648
42.11 	0.041860 	4945 	0.041624
42.15 	0.041717 	4938 	0.041124
42.19 	0.035249 	4908 	0.035010
42.23 	0.039043 	4892 	0.039043
42.27 	0.040213 	4874 	0.039372
42.31 	0.042430 	4855 	0.041465
42.35 	0.040719 	4838 	0.040356
42.39 	0.039134 	4804 	0.038768
42.43 	0.040693 	4792 	0.040693
42.47 	0.044911 	4765 	0.044542
42.51 	0.039216 	4743 	0.038969
42.55 	0.038870 	4708 	0.038621
42.59 	0.037640 	4729 	0.037516
42.63 	0.037163 	4709 	0.036790
42.67 	0.036934 	4684 	0.036434
42.71 	0.035814 	4663 	0.035437
42.75 	0.041369 	4617 	0.040734
42.79 	0.038193 	4582 	0.037682
42.83 	0.040123 	4536 	0.039219
42.87 	0.044010 	4499 	0.043489
42.91 	0.042415 	4456 	0.042152
42.95 	0.039855 	4416 	0.039457
42.99 	0.040821 	4385 	0.039886
43.03 	0.037849 	4333 	0.037308
43.07 	0.038175 	4296 	0.037334
43.11 	0.044418 	4255 	0.043868
43.15 	0.036852 	4206 	0.036434
43.19 	0.034335 	4194 	0.033497
43.23 	0.034665 	4154 	0.034383
43.27 	0.038733 	4105 	0.038305
43.31 	0.037754 	4079 	0.037754
43.35 	0.034226 	4032 	0.034081
43.39 	0.040980 	4002 	0.040540
43.43 	0.039394 	3960 	0.038802
43.47 	0.036980 	3921 	0.036383
43.51 	0.037658 	3877 	0.036903
43.55 	0.034413 	2964 	0.033820
43.59 	0.033792 	1746 	0.033456
43.63 	0.030969 	1001 	0.030969
43.67 	0.031873 	502 	0.031873
43.71 	0.016736 	239 	0.016736
43.75 	0.062500 	16 	0.062500