File: Example_Data/25SC_s1_0033.002.dat
#F C:\frames\spec\25SC_s1_0033.002
#C title =s:33 frm:2 25SC_s1
#C wavelength =0.15406

#S 1  fr_average C:\frames\spec\25SC_s1_0033.002 C:\win32app\speccom\mask.axs chi 0 180 0 360 0.02
#C 2 theta =0.000000 to 180 deg
#C   q   =0.000000 to 81.568 nm^-1
#C  chi  =0.000000 to 360 deg
#C collumns:
#C  1 position (2theta or chi in degrees)
#C  2 average intensity (sum of all counts in the region divided with number of pixels)
#C  3 Number of pixels in region)
#C  4 error (sum of sqrt(intensity) for all pixels divided by number)
#N 4
#L TTh  Int  N_pix  Err
32.99 	0.098361 	61 	0.098361
33.03 	0.055356 	1391 	0.054514
33.07 	0.060000 	2050 	0.058000
33.11 	0.055448 	2579 	0.055221
33.15 	0.062021 	2999 	0.061239
33.19 	0.058648 	3342 	0.057771
33.23 	0.054783 	3523 	0.054450
33.27 	0.059780 	3630 	0.058973
33.31 	0.056831 	3660 	0.055710
33.35 	0.057390 	3694 	0.056730
33.39 	0.057924 	3729 	0.056799
33.43 	0.061420 	3761 	0.060485
33.47 	0.063454 	3798 	0.061912
33.51 	0.061075 	3815 	0.059360
33.55 	0.059068 	3843 	0.058459
33.59 	0.063660 	3880 	0.061395
33.63 	0.059199 	3919 	0.058003
33.67 	0.057916 	3954 	0.057027
33.71 	0.053585 	3975 	0.052995
33.75 	0.050013 	3999 	0.049134
33.79 	0.060629 	4041 	0.060049
33.83 	0.057778 	4050 	0.057055
33.87 	0.057650 	4111 	0.057365
33.91 	0.066281 	4149 	0.065152
33.95 	0.051423 	4181 	0.050162
33.99 	0.057619 	4200 	0.057480
34.03 	0.057493 	4244 	0.056389
34.07 	0.056467 	4268 	0.055918
34.11 	0.057648 	4302 	0.056014
34.15 	0.059109 	4331 	0.057463
34.19 	0.059376 	4362 	0.058168
34.23 	0.052811 	4393 	0.052545
34.27 	0.058571 	4422 	0.057070
34.31 	0.058322 	4458 	0.057928
34.35 	0.053524 	4484 	0.052326
34.39 	0.053754 	4502 	0.053103
34.43 	0.060806 	4539 	0.060161
34.47 	0.050523 	4592 	0.049205
34.51 	0.055580 	4606 	0.055198
34.55 	0.057937 	4643 	0.056675
34.59 	0.059893 	4675 	0.058640
34.63 	0.058599 	4710 	0.057583
34.67 	0.053997 	4741 	0.052885
34.71 	0.059169 	4766 	0.057694
34.75 	0.057820 	4808 	0.056846
34.79 	0.055348 	4824 	0.054863
34.83 	0.058206 	4862 	0.057363
34.87 	0.061832 	4868 	0.061091
34.91 	0.053052 	4882 	0.052572
34.95 	0.057669 	4890 	0.056591
34.99 	0.058607 	4897 	0.057511
35.03 	0.057657 	4943 	0.056591
35.07 	0.059109 	4940 	0.057568
35.11 	0.051546 	4947 	0.050244
35.15 	0.053271 	4937 	0.052678
35.19 	0.064144 	4942 	0.062959
35.23 	0.052578 	4945 	0.051512
35.27 	0.054163 	4948 	0.053453
35.31 	0.055342 	4933 	0.054273
35.35 	0.062121 	4942 	0.060817
35.39 	0.054803 	4945 	0.053974
35.43 	0.056761 	4933 	0.055573
35.47 	0.053133 	4931 	0.052420
35.51 	0.053999 	4926 	0.053405
35.55 	0.058241 	4945 	0.057056
35.59 	0.053792 	4945 	0.053199
35.63 	0.057657 	4943 	0.057183
35.67 	0.059490 	4942 	0.058186
35.71 	0.056917 	4937 	0.056205
35.75 	0.051916 	4931 	0.051085
35.79 	0.054339 	4932 	0.053270
35.83 	0.054994 	4946 	0.053810
35.87 	0.064595 	4923 	0.063524
35.91 	0.059874 	4927 	0.059042
35.95 	0.057352 	4917 	0.056399
35.99 	0.058109 	4939 	0.057516
36.03 	0.054623 	4943 	0.053418
36.07 	0.052642 	4939 	0.051693
36.11 	0.059038 	4929 	0.058206
36.15 	0.059729 	4939 	0.057693
36.19 	0.053239 	4940 	0.052765
36.23 	0.057953 	4935 	0.057122
36.27 	0.058071 	4925 	0.056644
36.31 	0.049513 	4928 	0.049038
36.35 	0.054169 	4929 	0.053575
36.39 	0.056899 	4921 	0.055828
36.43 	0.051948 	4928 	0.051473
36.47 	0.062399 	4936 	0.061093
36.51 	0.050476 	4933 	0.050001
36.55 	0.063730 	4927 	0.062779
36.59 	0.052035 	4939 	0.051442
36.63 	0.058609 	4931 	0.057896
36.67 	0.051116 	4930 	0.050165
36.71 	0.054460 	4921 	0.054222
36.75 	0.055421 	4944 	0.054710
36.79 	0.054257 	4921 	0.053067
36.83 	0.054323 	4915 	0.053728
36.87 	0.054612 	4944 	0.053782
36.91 	0.055859 	4941 	0.054516
36.95 	0.047030 	4933 	0.046555
36.99 	0.056535 	4935 	0.055447
37.03 	0.050366 	4924 	0.049771
37.07 	0.050456 	4935 	0.049269
37.11 	0.055117 	4935 	0.054286
37.15 	0.048279 	4909 	0.047682
37.19 	0.056650 	4925 	0.055698
37.23 	0.046970 	4918 	0.045898
37.27 	0.053126 	4894 	0.052408
37.31 	0.044782 	4935 	0.044307
37.35 	0.052045 	4938 	0.051452
37.39 	0.051105 	4931 	0.050986
37.43 	0.056164 	4932 	0.056045
37.47 	0.051938 	4929 	0.051343
37.51 	0.055747 	4933 	0.055391
37.55 	0.058215 	4930 	0.057383
37.59 	0.045168 	4915 	0.044691
37.63 	0.046961 	4919 	0.046246
37.67 	0.053222 	4904 	0.052386
37.71 	0.045851 	4929 	0.045019
37.75 	0.048988 	4940 	0.048514
37.79 	0.054361 	4930 	0.054005
37.83 	0.050813 	4920 	0.050337
37.87 	0.054869 	4939 	0.054276
37.91 	0.054767 	4930 	0.053697
37.95 	0.049583 	4921 	0.048869
37.99 	0.056189 	4912 	0.054977
38.03 	0.055816 	4909 	0.054364
38.07 	0.052964 	4909 	0.052129
38.11 	0.059574 	4935 	0.058625
38.15 	0.057950 	4918 	0.057474
38.19 	0.056389 	4930 	0.055914
38.23 	0.056703 	4938 	0.056466
38.27 	0.053550 	4930 	0.052837
38.31 	0.060686 	4927 	0.059616
38.35 	0.058644 	4928 	0.057931
38.39 	0.063149 	4909 	0.061459
38.43 	0.064890 	4916 	0.063937
38.47 	0.058284 	4907 	0.057210
38.51 	0.067924 	4932 	0.066855
38.55 	0.059968 	4936 	0.058781
38.59 	0.057880 	4924 	0.057404
38.63 	0.060520 	4924 	0.059211
38.67 	0.061981 	4937 	0.061150
38.71 	0.046507 	4924 	0.045555
38.75 	0.047087 	4927 	0.046493
38.79 	0.050263 	4934 	0.049195
38.83 	0.051230 	4919 	0.050377
38.87 	0.045816 	4911 	0.045100
38.91 	0.051193 	4903 	0.050357
38.95 	0.051037 	4918 	0.050203
38.99 	0.046384 	4937 	0.045554
39.03 	0.043373 	4934 	0.043016
39.07 	0.044679 	4924 	0.043965
39.11 	0.043196 	4931 	0.042840
39.15 	0.051882 	4915 	0.050929
39.19 	0.047183 	4917 	0.046945
39.23 	0.043655 	4925 	0.042822
39.27 	0.047251 	4910 	0.046773
39.31 	0.046683 	4884 	0.046083
39.35 	0.047822 	4935 	0.047347
39.39 	0.040576 	4929 	0.039863
39.43 	0.045814 	4933 	0.045220
39.47 	0.039610 	4923 	0.039134
39.51 	0.048335 	4924 	0.047383
39.55 	0.043708 	4919 	0.043113
39.59 	0.043974 	4912 	0.043616
39.63 	0.041650 	4922 	0.041035
39.67 	0.047018 	4913 	0.046541
39.71 	0.049030 	4895 	0.048192
39.75 	0.046672 	4928 	0.045602
39.79 	0.047097 	4926 	0.046265
39.83 	0.047831 	4934 	0.046763
39.87 	0.044670 	4925 	0.044194
39.91 	0.050996 	4922 	0.049924
39.95 	0.043133 	4915 	0.043014
39.99 	0.045418 	4932 	0.044943
40.03 	0.043628 	4928 	0.043272
40.07 	0.044485 	4923 	0.043633
40.11 	0.039260 	4916 	0.038545
40.15 	0.041115 	4913 	0.041115
40.19 	0.038750 	4929 	0.038631
40.23 	0.043187 	4932 	0.042831
40.27 	0.040713 	4937 	0.040120
40.31 	0.038469 	4939 	0.038351
40.35 	0.040659 	4919 	0.040301
40.39 	0.047252 	4931 	0.046421
40.43 	0.042259 	4922 	0.041902
40.47 	0.042294 	4918 	0.041817
40.51 	0.040024 	4922 	0.039667
40.55 	0.039731 	4908 	0.039492
40.59 	0.038080 	4937 	0.037961
40.63 	0.040162 	4930 	0.039568
40.67 	0.038929 	4932 	0.038692
40.71 	0.038321 	4932 	0.037490
40.75 	0.041371 	4931 	0.041252
40.79 	0.044679 	4924 	0.044560
40.83 	0.042411 	4928 	0.041341
40.87 	0.039570 	4928 	0.038975
40.91 	0.041641 	4923 	0.041046
40.95 	0.038673 	4913 	0.038196
40.99 	0.043461 	4924 	0.043104
41.03 	0.039959 	4905 	0.039482
41.07 	0.046247 	4930 	0.045535
41.11 	0.039514 	4935 	0.039276
41.15 	0.044728 	4941 	0.044372
41.19 	0.041988 	4930 	0.041037
41.23 	0.040696 	4939 	0.040222
41.27 	0.040560 	4931 	0.040085
41.31 	0.038313 	4933 	0.038195
41.35 	0.037262 	4938 	0.036669
41.39 	0.041151 	4933 	0.040676
41.43 	0.040373 	4929 	0.040017
41.47 	0.044255 	4926 	0.043660
41.51 	0.036842 	4940 	0.036249
41.55 	0.037893 	4935 	0.037180
41.59 	0.041760 	4933 	0.041285
41.63 	0.044552 	4938 	0.043722
41.67 	0.045951 	4940 	0.045951
41.71 	0.042359 	4934 	0.041647
41.75 	0.035301 	4929 	0.034945
41.79 	0.037419 	4944 	0.037182
41.83 	0.036120 	4928 	0.035526
41.87 	0.040324 	4935 	0.039612
41.91 	0.037682 	4936 	0.037564
41.95 	0.042182 	4931 	0.041351
41.99 	0.043221 	4905 	0.042624
42.03 	0.038874 	4939 	0.038756
42.07 	0.036662 	4937 	0.036187
42.11 	0.037209 	4945 	0.036617
42.15 	0.042122 	4938 	0.041648
42.19 	0.037286 	4908 	0.036928
42.23 	0.034955 	4892 	0.034716
42.27 	0.040419 	4874 	0.039818
42.31 	0.036663 	4855 	0.036422
42.35 	0.035759 	4838 	0.035637
42.39 	0.035387 	4804 	0.034899
42.43 	0.041945 	4792 	0.041089
42.47 	0.035677 	4765 	0.035677
42.51 	0.040902 	4743 	0.040285
42.55 	0.038233 	4708 	0.037984
42.59 	0.038063 	4729 	0.037568
42.63 	0.038012 	4709 	0.037390
42.67 	0.035867 	4684 	0.035241
42.71 	0.039031 	4663 	0.038654
42.75 	0.034871 	4617 	0.034744
42.79 	0.039721 	4582 	0.039209
42.83 	0.037257 	4536 	0.037128
42.87 	0.034897 	4499 	0.034376
42.91 	0.037478 	4456 	0.037083
42.95 	0.040534 	4416 	0.040136
42.99 	0.042417 	4385 	0.042284
43.03 	0.039234 	4333 	0.038693
43.07 	0.033520 	4296 	0.033247
43.11 	0.036663 	4255 	0.036250
43.15 	0.038992 	4206 	0.038853
43.19 	0.041249 	4194 	0.040830
43.23 	0.043572 	4154 	0.043290
43.27 	0.031912 	4105 	0.031770
43.31 	0.042658 	4079 	0.042083
43.35 	0.039435 	4032 	0.038853
43.39 	0.029235 	4002 	0.029089
43.43 	0.035859 	3960 	0.035119
43.47 	0.039021 	3921 	0.038722
43.51 	0.040495 	3877 	0.039740
43.55 	0.036100 	2964 	0.036100
43.59 	0.042383 	1746 	0.041712
43.63 	0.040959 	1001 	0.039789
43.67 	0.025896 	502 	0.025896
43.71 	0.012552 	239 	0.012552
43.75 	0.062500 	16 	0.062500