File: Example_Data/25SC_s1_0047.004.dat
#F C:\frames\spec\25SC_s1_0047.004
#C title =s:47 frm:4 25SC_s1
#C wavelength =0.15406

#S 1  fr_average C:\frames\spec\25SC_s1_0047.004 C:\win32app\speccom\mask.axs chi 0 180 0 360 0.02
#C 2 theta =0.000000 to 180 deg
#C   q   =0.000000 to 81.568 nm^-1
#C  chi  =0.000000 to 360 deg
#C collumns:
#C  1 position (2theta or chi in degrees)
#C  2 average intensity (sum of all counts in the region divided with number of pixels)
#C  3 Number of pixels in region)
#C  4 error (sum of sqrt(intensity) for all pixels divided by number)
#N 4
#L TTh  Int  N_pix  Err
32.99 	0.098361 	61 	0.088758
33.03 	0.058950 	1391 	0.058108
33.07 	0.055122 	2050 	0.054550
33.11 	0.063591 	2579 	0.061773
33.15 	0.056686 	2999 	0.055904
33.19 	0.049372 	3342 	0.049021
33.23 	0.049674 	3523 	0.048676
33.27 	0.057851 	3630 	0.056883
33.31 	0.060109 	3660 	0.058509
33.35 	0.056037 	3694 	0.054742
33.39 	0.055511 	3729 	0.053940
33.43 	0.058495 	3761 	0.057716
33.47 	0.061875 	3798 	0.061103
33.51 	0.055832 	3815 	0.054604
33.55 	0.055686 	3843 	0.054924
33.59 	0.053351 	3880 	0.052445
33.63 	0.054351 	3919 	0.053603
33.67 	0.056904 	3954 	0.055867
33.71 	0.064403 	3975 	0.063076
33.75 	0.054014 	3999 	0.053721
33.79 	0.056917 	4041 	0.055757
33.83 	0.052840 	4050 	0.051538
33.87 	0.061056 	4111 	0.060201
33.91 	0.060497 	4149 	0.059932
33.95 	0.051901 	4181 	0.050641
33.99 	0.058571 	4200 	0.057874
34.03 	0.065033 	4244 	0.063101
34.07 	0.061621 	4268 	0.060638
34.11 	0.068573 	4302 	0.067756
34.15 	0.057492 	4331 	0.055869
34.19 	0.063274 	4362 	0.061909
34.23 	0.056909 	4393 	0.055442
34.27 	0.059701 	4422 	0.058377
34.31 	0.058995 	4458 	0.058732
34.35 	0.056646 	4484 	0.055862
34.39 	0.058196 	4502 	0.057416
34.43 	0.058824 	4539 	0.057662
34.47 	0.057709 	4592 	0.056030
34.51 	0.058402 	4606 	0.057766
34.55 	0.060090 	4643 	0.058955
34.59 	0.059465 	4675 	0.058839
34.63 	0.054352 	4710 	0.053606
34.67 	0.061590 	4741 	0.060602
34.71 	0.057700 	4766 	0.056594
34.75 	0.054908 	4808 	0.053812
34.79 	0.055348 	4824 	0.053891
34.83 	0.055121 	4862 	0.053917
34.87 	0.059162 	4868 	0.057818
34.91 	0.056534 	4882 	0.055574
34.95 	0.056442 	4890 	0.055364
34.99 	0.058199 	4897 	0.056644
35.03 	0.058871 	4943 	0.058160
35.07 	0.056478 	4940 	0.055173
35.11 	0.055387 	4947 	0.054795
35.15 	0.065627 	4937 	0.065034
35.19 	0.059692 	4942 	0.058863
35.23 	0.057836 	4945 	0.056987
35.27 	0.064673 	4948 	0.063370
35.31 	0.055139 	4933 	0.054664
35.35 	0.053824 	4942 	0.053232
35.39 	0.054398 	4945 	0.054043
35.43 	0.058585 	4933 	0.057516
35.47 	0.062665 	4931 	0.062071
35.51 	0.057044 	4926 	0.056212
35.55 	0.059050 	4945 	0.058339
35.59 	0.062083 	4945 	0.061017
35.63 	0.058264 	4943 	0.057672
35.67 	0.058276 	4942 	0.056972
35.71 	0.059145 	4937 	0.058196
35.75 	0.056986 	4931 	0.056254
35.79 	0.062855 	4932 	0.061667
35.83 	0.056005 	4946 	0.054347
35.87 	0.059923 	4923 	0.058971
35.91 	0.054800 	4927 	0.053849
35.95 	0.060606 	4917 	0.059296
35.99 	0.057704 	4939 	0.056518
36.03 	0.049970 	4943 	0.048903
36.07 	0.062968 	4939 	0.062375
36.11 	0.064516 	4929 	0.062971
36.15 	0.058919 	4939 	0.058207
36.19 	0.059919 	4940 	0.058852
36.23 	0.058764 	4935 	0.058052
36.27 	0.055025 	4925 	0.054193
36.31 	0.062500 	4928 	0.061311
36.35 	0.060256 	4929 	0.058572
36.39 	0.058728 	4921 	0.057776
36.43 	0.053977 	4928 	0.053264
36.47 	0.056524 	4936 	0.055811
36.51 	0.052098 	4933 	0.051504
36.55 	0.055612 	4927 	0.054780
36.59 	0.058311 	4939 	0.057481
36.63 	0.050497 	4931 	0.049784
36.67 	0.060041 	4930 	0.059328
36.71 	0.058118 	4921 	0.057523
36.75 	0.058252 	4944 	0.057048
36.79 	0.053851 	4921 	0.052522
36.83 	0.052289 	4915 	0.051097
36.87 	0.051173 	4944 	0.050462
36.91 	0.052419 	4941 	0.051233
36.95 	0.052098 	4933 	0.050911
36.99 	0.054306 	4935 	0.053238
37.03 	0.055443 	4924 	0.054085
37.07 	0.053901 	4935 	0.052951
37.11 	0.051874 	4935 	0.050925
37.15 	0.056223 	4909 	0.055607
37.19 	0.051574 	4925 	0.051217
37.23 	0.053070 	4918 	0.051879
37.27 	0.057622 	4894 	0.056544
37.31 	0.060993 	4935 	0.059925
37.35 	0.053260 	4938 	0.052667
37.39 	0.056175 	4931 	0.055581
37.43 	0.054542 	4932 	0.053592
37.47 	0.053561 	4929 	0.052966
37.51 	0.051693 	4933 	0.050861
37.55 	0.050710 	4930 	0.049878
37.59 	0.059207 	4915 	0.057895
37.63 	0.051230 	4919 	0.050515
37.67 	0.058931 	4904 	0.057618
37.71 	0.053561 	4929 	0.052610
37.75 	0.057287 	4940 	0.056695
37.79 	0.057201 	4930 	0.056013
37.83 	0.049593 	4920 	0.048760
37.87 	0.054869 	4939 	0.053921
37.91 	0.056795 	4930 	0.056320
37.95 	0.058321 	4921 	0.057369
37.99 	0.054967 	4912 	0.053417
38.03 	0.054594 	4909 	0.053997
38.07 	0.055205 	4909 	0.054489
38.11 	0.059574 	4935 	0.057418
38.15 	0.056730 	4918 	0.055539
38.19 	0.062069 	4930 	0.061000
38.23 	0.061766 	4938 	0.060105
38.27 	0.054564 	4930 	0.053613
38.31 	0.056221 	4927 	0.055389
38.35 	0.054383 	4928 	0.053670
38.39 	0.055612 	4909 	0.054896
38.43 	0.058584 	4916 	0.057750
38.47 	0.069696 	4907 	0.067667
38.51 	0.066910 	4932 	0.065485
38.55 	0.066451 	4936 	0.065501
38.59 	0.062145 	4924 	0.060955
38.63 	0.061129 	4924 	0.059801
38.67 	0.065424 	4937 	0.063763
38.71 	0.063363 	4924 	0.061817
38.75 	0.061295 	4927 	0.060225
38.79 	0.059789 	4934 	0.059077
38.83 	0.067290 	4919 	0.065504
38.87 	0.057829 	4911 	0.056855
38.91 	0.054456 	4903 	0.053979
38.95 	0.051850 	4918 	0.051374
38.99 	0.054689 	4937 	0.053859
39.03 	0.059587 	4934 	0.058261
39.07 	0.050772 	4924 	0.049701
39.11 	0.049686 	4931 	0.048953
39.15 	0.061648 	4915 	0.060933
39.19 	0.049217 	4917 	0.048740
39.23 	0.052183 	4925 	0.051826
39.27 	0.054582 	4910 	0.054105
39.31 	0.057125 	4884 	0.056286
39.35 	0.055117 	4935 	0.054266
39.39 	0.047677 	4929 	0.047083
39.43 	0.052909 	4933 	0.051959
39.47 	0.060735 	4923 	0.059526
39.51 	0.055240 	4924 	0.054288
39.55 	0.055296 	4919 	0.054819
39.59 	0.055375 	4912 	0.054421
39.63 	0.064405 	4922 	0.063433
39.67 	0.057806 	4913 	0.056971
39.71 	0.050255 	4895 	0.049657
39.75 	0.053369 	4928 	0.052774
39.79 	0.062728 	4926 	0.061064
39.83 	0.054925 	4934 	0.053619
39.87 	0.056650 	4925 	0.055460
39.91 	0.055465 	4922 	0.054394
39.95 	0.056765 	4915 	0.055692
39.99 	0.056367 	4932 	0.055060
40.03 	0.053774 	4928 	0.053180
40.07 	0.051391 	4923 	0.050559
40.11 	0.053092 	4916 	0.052496
40.15 	0.053939 	4913 	0.052985
40.19 	0.060661 	4929 	0.059354
40.23 	0.058597 	4932 	0.057647
40.27 	0.054081 	4937 	0.052658
40.31 	0.051022 	4939 	0.050173
40.35 	0.053466 	4919 	0.053109
40.39 	0.047658 	4931 	0.047420
40.43 	0.050589 	4922 	0.049637
40.47 	0.054087 	4918 	0.052658
40.51 	0.049980 	4922 	0.049147
40.55 	0.047677 	4908 	0.047080
40.59 	0.058132 	4937 	0.057421
40.63 	0.052535 	4930 	0.050991
40.67 	0.046634 	4932 	0.045308
40.71 	0.044404 	4932 	0.043691
40.75 	0.052728 	4931 	0.051302
40.79 	0.054427 	4924 	0.053832
40.83 	0.050325 	4928 	0.049374
40.87 	0.050731 	4928 	0.050017
40.91 	0.050579 	4923 	0.049508
40.95 	0.049461 	4913 	0.048507
40.99 	0.044882 	4924 	0.044525
41.03 	0.053619 	4905 	0.052186
41.07 	0.047465 	4930 	0.046257
41.11 	0.056535 	4935 	0.056179
41.15 	0.050192 	4941 	0.049481
41.19 	0.051318 	4930 	0.050368
41.23 	0.048593 	4939 	0.047763
41.27 	0.046238 	4931 	0.045169
41.31 	0.049260 	4933 	0.048904
41.35 	0.052653 	4938 	0.051704
41.39 	0.053923 	4933 	0.053210
41.43 	0.057415 	4929 	0.056702
41.47 	0.052984 	4926 	0.052271
41.51 	0.049595 	4940 	0.049121
41.55 	0.054103 	4935 	0.053866
41.59 	0.051490 	4933 	0.050520
41.63 	0.049413 	4938 	0.048701
41.67 	0.048178 	4940 	0.046992
41.71 	0.047021 	4934 	0.046308
41.75 	0.051532 	4929 	0.050224
41.79 	0.046117 	4944 	0.045406
41.83 	0.048701 	4928 	0.048107
41.87 	0.044174 	4935 	0.043699
41.91 	0.045381 	4936 	0.045144
41.95 	0.044818 	4931 	0.044343
41.99 	0.050357 	4905 	0.049879
42.03 	0.052237 	4939 	0.050933
42.07 	0.044561 	4937 	0.043968
42.11 	0.048332 	4945 	0.047502
42.15 	0.042325 	4938 	0.041732
42.19 	0.045029 	4908 	0.044074
42.23 	0.050899 	4892 	0.050061
42.27 	0.040213 	4874 	0.039733
42.31 	0.045932 	4855 	0.045811
42.35 	0.044440 	4838 	0.043713
42.39 	0.047460 	4804 	0.047217
42.43 	0.044240 	4792 	0.043996
42.47 	0.045750 	4765 	0.045381
42.51 	0.046173 	4743 	0.045309
42.55 	0.043118 	4708 	0.042372
42.59 	0.046099 	4729 	0.045603
42.63 	0.043321 	4709 	0.042699
42.67 	0.046541 	4684 	0.045791
42.71 	0.042676 	4663 	0.042174
42.75 	0.047217 	4617 	0.046456
42.79 	0.041248 	4582 	0.041121
42.83 	0.048942 	4536 	0.047909
42.87 	0.042009 	4499 	0.041619
42.91 	0.050494 	4456 	0.049836
42.95 	0.046875 	4416 	0.046212
42.99 	0.045382 	4385 	0.045248
43.03 	0.047311 	4333 	0.046771
43.07 	0.047253 	4296 	0.046981
43.11 	0.046533 	4255 	0.045845
43.15 	0.049453 	4206 	0.049035
43.19 	0.042442 	4194 	0.041883
43.23 	0.043813 	4154 	0.043390
43.27 	0.043605 	4105 	0.042749
43.31 	0.046090 	4079 	0.045515
43.35 	0.043899 	4032 	0.043172
43.39 	0.043228 	4002 	0.042936
43.43 	0.042677 	3960 	0.042381
43.47 	0.043866 	3921 	0.043568
43.51 	0.037916 	3877 	0.037463
43.55 	0.041161 	2964 	0.040568
43.59 	0.053837 	1746 	0.052831
43.63 	0.057942 	1001 	0.056090
43.67 	0.059761 	502 	0.058594
43.71 	0.058577 	239 	0.058577
43.75 	0.062500 	16 	0.062500