File: Example_Data/25SC_s1_0049.001.dat
#F C:\frames\spec\25SC_s1_0049.001
#C title =s:49 frm:1 25SC_s1
#C wavelength =0.15406

#S 1  fr_average C:\frames\spec\25SC_s1_0049.001 C:\win32app\speccom\mask.axs chi 0 180 0 360 0.02
#C 2 theta =0.000000 to 180 deg
#C   q   =0.000000 to 81.568 nm^-1
#C  chi  =0.000000 to 360 deg
#C collumns:
#C  1 position (2theta or chi in degrees)
#C  2 average intensity (sum of all counts in the region divided with number of pixels)
#C  3 Number of pixels in region)
#C  4 error (sum of sqrt(intensity) for all pixels divided by number)
#N 4
#L TTh  Int  N_pix  Err
32.99 	0.016393 	61 	0.016393
33.03 	0.054637 	1391 	0.053374
33.07 	0.063415 	2050 	0.063129
33.11 	0.062815 	2579 	0.062134
33.15 	0.059353 	2999 	0.057986
33.19 	0.056852 	3342 	0.056151
33.23 	0.061028 	3523 	0.059531
33.27 	0.055923 	3630 	0.055116
33.31 	0.062568 	3660 	0.061768
33.35 	0.055766 	3694 	0.054630
33.39 	0.061947 	3729 	0.061161
33.43 	0.055304 	3761 	0.054214
33.47 	0.059242 	3798 	0.058008
33.51 	0.057143 	3815 	0.056375
33.55 	0.063752 	3843 	0.062533
33.59 	0.065206 	3880 	0.064451
33.63 	0.058433 	3919 	0.056789
33.67 	0.051846 	3954 	0.051550
33.71 	0.061132 	3975 	0.059953
33.75 	0.057014 	3999 	0.055549
33.79 	0.058896 	4041 	0.056867
33.83 	0.058519 	4050 	0.057217
33.87 	0.058623 	4111 	0.057626
33.91 	0.061943 	4149 	0.061237
33.95 	0.054532 	4181 	0.053832
33.99 	0.065952 	4200 	0.064697
34.03 	0.053016 	4244 	0.051613
34.07 	0.058107 	4268 	0.057695
34.11 	0.057415 	4302 	0.056598
34.15 	0.057723 	4331 	0.056777
34.19 	0.055938 	4362 	0.055400
34.23 	0.060323 	4393 	0.059790
34.27 	0.060380 	4422 	0.060115
34.31 	0.057649 	4458 	0.056729
34.35 	0.054862 	4484 	0.054209
34.39 	0.054198 	4502 	0.053417
34.43 	0.055078 	4539 	0.053530
34.47 	0.053571 	4592 	0.052806
34.51 	0.061007 	4606 	0.060096
34.55 	0.054706 	4643 	0.053949
34.59 	0.059037 	4675 	0.057889
34.63 	0.063907 	4710 	0.062290
34.67 	0.060747 	4741 	0.060252
34.71 	0.052035 	4766 	0.051052
34.75 	0.055116 	4808 	0.054264
34.79 	0.053068 	4824 	0.051854
34.83 	0.057178 	4862 	0.056576
34.87 	0.059573 	4868 	0.058971
34.91 	0.059197 	4882 	0.058457
34.95 	0.058282 	4890 	0.057563
34.99 	0.052277 	4897 	0.050822
35.03 	0.060287 	4943 	0.058984
35.07 	0.054251 	4940 	0.053658
35.11 	0.059430 	4947 	0.058127
35.15 	0.056917 	4937 	0.055849
35.19 	0.052003 	4942 	0.051055
35.23 	0.057836 	4945 	0.057007
35.27 	0.057397 	4948 	0.056213
35.31 	0.057571 	4933 	0.056602
35.35 	0.054431 	4942 	0.053957
35.39 	0.053185 	4945 	0.052593
35.43 	0.057977 	4933 	0.057027
35.47 	0.055364 	4931 	0.054038
35.51 	0.055420 	4926 	0.054826
35.55 	0.059252 	4945 	0.058186
35.59 	0.052781 	4945 	0.052188
35.63 	0.054623 	4943 	0.054030
35.67 	0.057264 	4942 	0.055605
35.71 	0.057525 	4937 	0.056299
35.75 	0.062462 	4931 	0.061274
35.79 	0.057989 	4932 	0.057157
35.83 	0.057016 	4946 	0.056068
35.87 	0.057688 	4923 	0.056974
35.91 	0.052770 	4927 	0.052295
35.95 	0.054912 	4917 	0.054078
35.99 	0.055274 	4939 	0.054919
36.03 	0.061501 	4943 	0.060079
36.07 	0.054464 	4939 	0.053753
36.11 	0.054778 	4929 	0.053708
36.15 	0.057906 	4939 	0.057076
36.19 	0.054251 	4940 	0.053540
36.23 	0.065046 	4935 	0.064333
36.27 	0.058680 	4925 	0.057967
36.31 	0.054586 	4928 	0.054229
36.35 	0.056807 	4929 	0.055618
36.39 	0.052022 	4921 	0.051189
36.43 	0.053774 	4928 	0.053061
36.47 	0.053687 	4936 	0.053094
36.51 	0.062639 	4933 	0.061214
36.55 	0.056424 	4927 	0.055592
36.59 	0.052035 	4939 	0.051422
36.63 	0.055567 	4931 	0.053785
36.67 	0.059229 	4930 	0.058279
36.71 	0.057305 	4921 	0.056353
36.75 	0.062905 	4944 	0.061957
36.79 	0.056086 	4921 	0.055134
36.83 	0.055951 	4915 	0.054740
36.87 	0.053398 	4944 	0.052924
36.91 	0.061324 	4941 	0.060494
36.95 	0.063653 	4933 	0.061833
36.99 	0.055319 	4935 	0.053638
37.03 	0.058489 	4924 	0.057775
37.07 	0.056332 	4935 	0.055976
37.11 	0.061601 	4935 	0.060295
37.15 	0.057242 	4909 	0.056287
37.19 	0.059695 	4925 	0.059220
37.23 	0.052054 	4918 	0.051101
37.27 	0.050470 	4894 	0.049512
37.31 	0.059169 	4935 	0.057863
37.35 	0.055691 	4938 	0.054742
37.39 	0.053944 	4931 	0.052994
37.43 	0.059205 	4932 	0.058374
37.47 	0.061067 	4929 	0.059522
37.51 	0.053720 	4933 	0.052889
37.55 	0.054767 	4930 	0.053816
37.59 	0.054934 	4915 	0.054219
37.63 	0.059565 	4919 	0.058017
37.67 	0.059135 	4904 	0.057821
37.71 	0.051532 	4929 	0.050700
37.75 	0.050000 	4940 	0.049289
37.79 	0.055781 	4930 	0.054593
37.83 	0.053252 	4920 	0.052657
37.87 	0.055477 	4939 	0.054528
37.91 	0.055172 	4930 	0.054578
37.95 	0.059134 	4921 	0.058182
37.99 	0.048656 	4912 	0.048179
38.03 	0.052760 	4909 	0.051925
38.07 	0.056427 	4909 	0.056069
38.11 	0.052482 	4935 	0.051651
38.15 	0.065474 	4918 	0.064164
38.19 	0.054564 	4930 	0.053732
38.23 	0.070879 	4938 	0.070167
38.27 	0.054767 	4930 	0.053460
38.31 	0.067181 	4927 	0.066072
38.35 	0.062094 	4928 	0.060430
38.39 	0.075168 	4909 	0.073736
38.43 	0.071196 	4916 	0.068932
38.47 	0.072957 	4907 	0.071266
38.51 	0.069749 	4932 	0.067848
38.55 	0.072326 	4936 	0.071732
38.59 	0.075548 	4924 	0.074121
38.63 	0.062551 	4924 	0.061480
38.67 	0.065829 	4937 	0.064861
38.71 	0.058083 	4924 	0.056893
38.75 	0.058453 	4927 	0.057007
38.79 	0.054925 	4934 	0.054331
38.83 	0.055702 	4919 	0.054750
38.87 	0.046834 	4911 	0.046476
38.91 	0.051601 	4903 	0.050745
38.95 	0.041684 	4918 	0.040612
38.99 	0.049220 	4937 	0.048864
39.03 	0.048439 	4934 	0.047965
39.07 	0.052396 	4924 	0.051445
39.11 	0.051308 	4931 	0.050714
39.15 	0.045982 	4915 	0.045147
39.19 	0.044743 	4917 	0.044147
39.23 	0.044873 	4925 	0.044516
39.27 	0.040937 	4910 	0.040460
39.31 	0.051802 	4884 	0.050962
39.35 	0.048632 	4935 	0.048157
39.39 	0.042808 	4929 	0.042332
39.43 	0.042976 	4933 	0.042145
39.47 	0.045298 	4923 	0.045179
39.51 	0.047725 	4924 	0.047487
39.55 	0.045131 	4919 	0.044774
39.59 	0.044788 	4912 	0.044192
39.63 	0.043885 	4922 	0.043151
39.67 	0.052514 	4913 	0.051321
39.71 	0.041675 	4895 	0.041556
39.75 	0.047281 	4928 	0.046805
39.79 	0.043646 	4926 	0.043289
39.83 	0.046818 	4934 	0.046106
39.87 	0.050152 	4925 	0.049439
39.91 	0.045307 	4922 	0.044712
39.95 	0.044761 	4915 	0.044284
39.99 	0.048459 	4932 	0.047390
40.03 	0.047484 	4928 	0.046751
40.07 	0.045501 	4923 	0.044787
40.11 	0.039260 	4916 	0.038902
40.15 	0.038469 	4913 	0.038112
40.19 	0.047068 	4929 	0.046712
40.23 	0.042376 	4932 	0.041782
40.27 	0.047600 	4937 	0.046987
40.31 	0.038874 	4939 	0.038637
40.35 	0.043301 	4919 	0.042706
40.39 	0.042385 	4931 	0.041791
40.43 	0.044900 	4922 	0.043591
40.47 	0.043920 	4918 	0.043325
40.51 	0.042869 	4922 	0.042274
40.55 	0.046251 	4908 	0.045535
40.59 	0.041118 	4937 	0.040406
40.63 	0.042596 	4930 	0.042240
40.67 	0.043593 	4932 	0.042999
40.71 	0.046431 	4932 	0.045363
40.75 	0.042993 	4931 	0.042518
40.79 	0.041024 	4924 	0.040548
40.83 	0.042005 	4928 	0.041411
40.87 	0.039367 	4928 	0.038773
40.91 	0.044079 	4923 	0.043722
40.95 	0.037452 	4913 	0.036856
40.99 	0.041633 	4924 	0.040800
41.03 	0.042610 	4905 	0.042371
41.07 	0.042191 	4930 	0.041953
41.11 	0.045390 	4935 	0.044896
41.15 	0.044323 	4941 	0.043730
41.19 	0.043611 	4930 	0.043254
41.23 	0.036647 	4939 	0.036528
41.27 	0.042385 	4931 	0.042147
41.31 	0.040341 	4933 	0.039984
41.35 	0.043135 	4938 	0.042542
41.39 	0.039327 	4933 	0.038971
41.43 	0.035707 	4929 	0.035469
41.47 	0.041616 	4926 	0.041259
41.51 	0.041093 	4940 	0.040737
41.55 	0.041540 	4935 	0.041421
41.59 	0.038922 	4933 	0.038209
41.63 	0.039490 	4938 	0.039134
41.67 	0.035020 	4940 	0.034902
41.71 	0.039116 	4934 	0.038641
41.75 	0.042199 	4929 	0.041605
41.79 	0.039442 	4944 	0.039323
41.83 	0.039976 	4928 	0.039500
41.87 	0.035664 	4935 	0.035070
41.91 	0.042950 	4936 	0.042356
41.95 	0.039951 	4931 	0.039714
41.99 	0.040775 	4905 	0.040297
42.03 	0.042316 	4939 	0.041605
42.07 	0.041321 	4937 	0.040727
42.11 	0.039838 	4945 	0.039246
42.15 	0.040097 	4938 	0.039385
42.19 	0.036267 	4908 	0.036029
42.23 	0.040065 	4892 	0.039826
42.27 	0.038162 	4874 	0.037561
42.31 	0.039959 	4855 	0.039597
42.35 	0.040099 	4838 	0.039252
42.39 	0.042048 	4804 	0.041804
42.43 	0.040067 	4792 	0.039822
42.47 	0.035047 	4765 	0.034678
42.51 	0.036264 	4743 	0.036017
42.55 	0.041844 	4708 	0.041097
42.59 	0.042292 	4729 	0.041921
42.63 	0.044383 	4709 	0.044010
42.67 	0.034799 	4684 	0.034549
42.71 	0.038173 	4663 	0.037796
42.75 	0.029023 	4617 	0.028896
42.79 	0.037538 	4582 	0.036899
42.83 	0.034612 	4536 	0.034354
42.87 	0.041343 	4499 	0.040561
42.91 	0.039048 	4456 	0.038917
42.95 	0.036685 	4416 	0.036022
42.99 	0.032611 	4385 	0.032344
43.03 	0.039926 	4333 	0.039521
43.07 	0.038175 	4296 	0.037766
43.11 	0.040658 	4255 	0.039970
43.15 	0.039943 	4206 	0.039664
43.19 	0.033381 	4194 	0.033381
43.23 	0.042850 	4154 	0.042568
43.27 	0.038246 	4105 	0.038246
43.31 	0.039961 	4079 	0.039674
43.35 	0.036706 	4032 	0.036416
43.39 	0.035482 	4002 	0.034750
43.43 	0.038131 	3960 	0.037983
43.47 	0.035705 	3921 	0.035705
43.51 	0.043590 	3877 	0.043137
43.55 	0.038124 	2964 	0.037729
43.59 	0.039519 	1746 	0.039183
43.63 	0.026973 	1001 	0.026388
43.67 	0.027888 	502 	0.027888
43.71 	0.037657 	239 	0.037657
43.75 	0.000000 	16 	0.000000