File: Example_Data/25SC_s1_0002.009.dat
#F C:\frames\spec\25SC_s1_0002.009
#C title =s:2 frm:9 25SC_s1
#C wavelength =0.15406

#S 1  fr_average C:\frames\spec\25SC_s1_0002.009 C:\win32app\speccom\mask.axs chi 0 180 0 360 0.02
#C 2 theta =0.000000 to 180 deg
#C   q   =0.000000 to 81.568 nm^-1
#C  chi  =0.000000 to 360 deg
#C collumns:
#C  1 position (2theta or chi in degrees)
#C  2 average intensity (sum of all counts in the region divided with number of pixels)
#C  3 Number of pixels in region)
#C  4 error (sum of sqrt(intensity) for all pixels divided by number)
#N 4
#L TTh  Int  N_pix  Err
32.99 	0.065574 	61 	0.065574
33.03 	0.068296 	1391 	0.066612
33.07 	0.065854 	2050 	0.064139
33.11 	0.070570 	2579 	0.068526
33.15 	0.071691 	2999 	0.070323
33.19 	0.064632 	3342 	0.064106
33.23 	0.074368 	3523 	0.072041
33.27 	0.063085 	3630 	0.062117
33.31 	0.062842 	3660 	0.061401
33.35 	0.072279 	3694 	0.071804
33.39 	0.065969 	3729 	0.064713
33.43 	0.069928 	3761 	0.068682
33.47 	0.069774 	3798 	0.068077
33.51 	0.075754 	3815 	0.074679
33.55 	0.067135 	3843 	0.066373
33.59 	0.079639 	3880 	0.078129
33.63 	0.065578 	3919 	0.064532
33.67 	0.067021 	3954 	0.066132
33.71 	0.078994 	3975 	0.077667
33.75 	0.071268 	3999 	0.069339
33.79 	0.076961 	4041 	0.075512
33.83 	0.068889 	4050 	0.067009
33.87 	0.071272 	4111 	0.069990
33.91 	0.067486 	4149 	0.065769
33.95 	0.069361 	4181 	0.067960
33.99 	0.066429 	4200 	0.064894
34.03 	0.076814 	4244 	0.074606
34.07 	0.071931 	4268 	0.070261
34.11 	0.069503 	4302 	0.068549
34.15 	0.071115 	4331 	0.069763
34.19 	0.074966 	4362 	0.073332
34.23 	0.066925 	4393 	0.065591
34.27 	0.064903 	4422 	0.063843
34.31 	0.080305 	4458 	0.078181
34.35 	0.068243 	4484 	0.067589
34.39 	0.074189 	4502 	0.071977
34.43 	0.074906 	4539 	0.073229
34.47 	0.065113 	4592 	0.063710
34.51 	0.061442 	4606 	0.060022
34.55 	0.069352 	4643 	0.068469
34.59 	0.072086 	4675 	0.070185
34.63 	0.068365 	4710 	0.067495
34.67 	0.065809 	4741 	0.064944
34.71 	0.065254 	4766 	0.064148
34.75 	0.070092 	4808 	0.069340
34.79 	0.075249 	4824 	0.073043
34.83 	0.068902 	4862 	0.067456
34.87 	0.068406 	4868 	0.066461
34.91 	0.073535 	4882 	0.072216
34.95 	0.071984 	4890 	0.070426
34.99 	0.070860 	4897 	0.069783
35.03 	0.063524 	4943 	0.061945
35.07 	0.075304 	4940 	0.073762
35.11 	0.071154 	4947 	0.070089
35.15 	0.072311 	4937 	0.071125
35.19 	0.074059 	4942 	0.072518
35.23 	0.072599 	4945 	0.071532
35.27 	0.062854 	4948 	0.061315
35.31 	0.074397 	4933 	0.072853
35.35 	0.070012 	4942 	0.069301
35.39 	0.071183 	4945 	0.069742
35.43 	0.069329 	4933 	0.067746
35.47 	0.070777 	4931 	0.070183
35.51 	0.071661 	4926 	0.070809
35.55 	0.079272 	4945 	0.078087
35.59 	0.071992 	4945 	0.069959
35.63 	0.072021 	4943 	0.070461
35.67 	0.074868 	4942 	0.072972
35.71 	0.071298 	4937 	0.069637
35.75 	0.078483 	4931 	0.075751
35.79 	0.065693 	4932 	0.063892
35.83 	0.073797 	4946 	0.072238
35.87 	0.068251 	4923 	0.067061
35.91 	0.078141 	4927 	0.076357
35.95 	0.070775 	4917 	0.069464
35.99 	0.072889 	4939 	0.071783
36.03 	0.077888 	4943 	0.075162
36.07 	0.072687 	4939 	0.071619
36.11 	0.079935 	4929 	0.078489
36.15 	0.071067 	4939 	0.070118
36.19 	0.074899 	4940 	0.073832
36.23 	0.079635 	4935 	0.078448
36.27 	0.076751 	4925 	0.075324
36.31 	0.072849 	4928 	0.070947
36.35 	0.071211 	4929 	0.069666
36.39 	0.069498 	4921 	0.068546
36.43 	0.079343 	4928 	0.078035
36.47 	0.071718 	4936 	0.070531
36.51 	0.072167 	4933 	0.070723
36.55 	0.074488 	4927 	0.073061
36.59 	0.080786 	4939 	0.078888
36.63 	0.074833 	4931 	0.073625
36.67 	0.072414 	4930 	0.070394
36.71 	0.071937 	4921 	0.070032
36.75 	0.072816 	4944 	0.071631
36.79 	0.074782 	4921 	0.073353
36.83 	0.070193 	4915 	0.068605
36.87 	0.061489 	4944 	0.060541
36.91 	0.068610 	4941 	0.066713
36.95 	0.073383 	4933 	0.070851
36.99 	0.074569 	4935 	0.073264
37.03 	0.070065 	4924 	0.068518
37.07 	0.065856 	4935 	0.064669
37.11 	0.071327 	4935 	0.070259
37.15 	0.068446 	4909 	0.067252
37.19 	0.068223 	4925 	0.067034
37.23 	0.067710 	4918 	0.066500
37.27 	0.064978 	4894 	0.063900
37.31 	0.073961 	4935 	0.072418
37.35 	0.070474 	4938 	0.068794
37.39 	0.068952 	4931 	0.067288
37.43 	0.070762 	4932 	0.069318
37.47 	0.062893 	4929 	0.061586
37.51 	0.065275 	4933 	0.063593
37.55 	0.067546 	4930 	0.066239
37.59 	0.072838 	4915 	0.071170
37.63 	0.075015 	4919 	0.073209
37.67 	0.069331 	4904 	0.067898
37.71 	0.073849 	4929 	0.072304
37.75 	0.070445 	4940 	0.068785
37.79 	0.066329 	4930 	0.064546
37.83 	0.066870 	4920 	0.065560
37.87 	0.079368 	4939 	0.077589
37.91 	0.061663 	4930 	0.060832
37.95 	0.069904 	4921 	0.068218
37.99 	0.069015 	4912 	0.067941
38.03 	0.066409 	4909 	0.064977
38.07 	0.069872 	4909 	0.068678
38.11 	0.068896 	4935 	0.067709
38.15 	0.072387 	4918 	0.070819
38.19 	0.068357 	4930 	0.067268
38.23 	0.063386 	4938 	0.062437
38.27 	0.065517 	4930 	0.064329
38.31 	0.070834 	4927 	0.069883
38.35 	0.076096 	4928 	0.073679
38.39 	0.087187 	4909 	0.085258
38.43 	0.081367 	4916 	0.079441
38.47 	0.083554 	4907 	0.081405
38.51 	0.089213 	4932 	0.086719
38.55 	0.083063 	4936 	0.080808
38.59 	0.079813 	4924 	0.078029
38.63 	0.077376 	4924 	0.075473
38.67 	0.080413 	4937 	0.078040
38.71 	0.071487 	4924 	0.069940
38.75 	0.068602 	4927 	0.067769
38.79 	0.079449 	4934 	0.077549
38.83 	0.067900 	4919 	0.066570
38.87 	0.069232 	4911 	0.068159
38.91 	0.073832 	4903 	0.071782
38.95 	0.063644 	4918 	0.062810
38.99 	0.061778 	4937 	0.060928
39.03 	0.058573 	4934 	0.057980
39.07 	0.067831 	4924 	0.066284
39.11 	0.067329 	4931 	0.066240
39.15 	0.063886 	4915 	0.062933
39.19 	0.065487 	4917 	0.064415
39.23 	0.061117 	4925 	0.060403
39.27 	0.069450 	4910 	0.068018
39.31 	0.062039 	4884 	0.060960
39.35 	0.065451 	4935 	0.063532
39.39 	0.067154 	4929 	0.066203
39.43 	0.062842 	4933 	0.061417
39.47 	0.062767 	4923 	0.060724
39.51 	0.067019 	4924 	0.066662
39.55 	0.066274 	4919 	0.064706
39.59 	0.071050 	4912 	0.069242
39.63 	0.074563 	4922 	0.073234
39.67 	0.067169 	4913 	0.065957
39.71 	0.067416 	4895 	0.066099
39.75 	0.066558 	4928 	0.064875
39.79 	0.071458 	4926 	0.070031
39.83 	0.069720 	4934 	0.069008
39.87 	0.062741 	4925 	0.061790
39.91 	0.062373 	4922 	0.061778
39.95 	0.062869 	4915 	0.061200
39.99 	0.068127 	4932 	0.066939
40.03 	0.069602 	4928 	0.068057
40.07 	0.068048 	4923 	0.067215
40.11 	0.059601 	4916 	0.058867
40.15 	0.057602 	4913 	0.056390
40.19 	0.057618 	4929 	0.056667
40.23 	0.059611 	4932 	0.059254
40.27 	0.059348 	4937 	0.058755
40.31 	0.067827 	4939 	0.066879
40.35 	0.054686 	4919 	0.053852
40.39 	0.062259 	4931 	0.061546
40.43 	0.059935 	4922 	0.058983
40.47 	0.060797 	4918 	0.060063
40.51 	0.063592 	4922 	0.062025
40.55 	0.057865 	4908 	0.057507
40.59 	0.064209 	4937 	0.063497
40.63 	0.062475 	4930 	0.060673
40.67 	0.059813 	4932 	0.058626
40.71 	0.058800 	4932 	0.057968
40.75 	0.061448 	4931 	0.060141
40.79 	0.064988 	4924 	0.064036
40.83 	0.061688 	4928 	0.061094
40.87 	0.060268 	4928 	0.059792
40.91 	0.061345 	4923 	0.060274
40.95 	0.057602 	4913 	0.056529
40.99 	0.065800 	4924 	0.064710
41.03 	0.063609 	4905 	0.063011
41.07 	0.061663 	4930 	0.060475
41.11 	0.059980 	4935 	0.059149
41.15 	0.056669 	4941 	0.056432
41.19 	0.063286 	4930 	0.062098
41.23 	0.061956 	4939 	0.060533
41.27 	0.060637 	4931 	0.059330
41.31 	0.061423 	4933 	0.060354
41.35 	0.058323 	4938 	0.057711
41.39 	0.068721 	4933 	0.067158
41.43 	0.056401 	4929 	0.055569
41.47 	0.060292 	4926 	0.059103
41.51 	0.057895 	4940 	0.057065
41.55 	0.060588 	4935 	0.059638
41.59 	0.056558 	4933 	0.056202
41.63 	0.060753 	4938 	0.059448
41.67 	0.060931 	4940 	0.059745
41.71 	0.061208 	4934 	0.060258
41.75 	0.059241 	4929 	0.057934
41.79 	0.061489 	4944 	0.060304
41.83 	0.060471 	4928 	0.059995
41.87 	0.064843 	4935 	0.063755
41.91 	0.057536 	4936 	0.056350
41.95 	0.061448 	4931 	0.061092
41.99 	0.062589 	4905 	0.061156
42.03 	0.058109 	4939 	0.056785
42.07 	0.062994 	4937 	0.062045
42.11 	0.057432 	4945 	0.056484
42.15 	0.052450 	4938 	0.051739
42.19 	0.054605 	4908 	0.053172
42.23 	0.054988 	4892 	0.054150
42.27 	0.054780 	4874 	0.054059
42.31 	0.057055 	4855 	0.055708
42.35 	0.059115 	4838 	0.058147
42.39 	0.058077 	4804 	0.057345
42.43 	0.062396 	4792 	0.061540
42.47 	0.056034 	4765 	0.054887
42.51 	0.053342 	4743 	0.052971
42.55 	0.060110 	4708 	0.058866
42.59 	0.061958 	4729 	0.061463
42.63 	0.049904 	4709 	0.049780
42.67 	0.055722 	4684 	0.053950
42.71 	0.056616 	4663 	0.055360
42.75 	0.053065 	4617 	0.052304
42.79 	0.060890 	4582 	0.058931
42.83 	0.054674 	4536 	0.054028
42.87 	0.058902 	4499 	0.058381
42.91 	0.057899 	4456 	0.057768
42.95 	0.057292 	4416 	0.056739
42.99 	0.056328 	4385 	0.055126
43.03 	0.057928 	4333 	0.056846
43.07 	0.058426 	4296 	0.057472
43.11 	0.058284 	4255 	0.057458
43.15 	0.055635 	4206 	0.054521
43.19 	0.051741 	4194 	0.051042
43.23 	0.052720 	4154 	0.052015
43.27 	0.055055 	4105 	0.054484
43.31 	0.056632 	4079 	0.055339
43.35 	0.059276 	4032 	0.057968
43.39 	0.054973 	4002 	0.054533
43.43 	0.053535 	3960 	0.052944
43.47 	0.052538 	3921 	0.051492
43.51 	0.054166 	3877 	0.053863
43.55 	0.048583 	2964 	0.048188
43.59 	0.056701 	1746 	0.055024
43.63 	0.040959 	1001 	0.040374
43.67 	0.047809 	502 	0.046642
43.71 	0.046025 	239 	0.046025
43.75 	0.125000 	16 	0.125000