File: Example_Data/25SC_s1_0010.002.dat
#F C:\frames\spec\25SC_s1_0010.002
#C title =s:10 frm:2 25SC_s1
#C wavelength =0.15406

#S 1  fr_average C:\frames\spec\25SC_s1_0010.002 C:\win32app\speccom\mask.axs chi 0 180 0 360 0.02
#C 2 theta =0.000000 to 180 deg
#C   q   =0.000000 to 81.568 nm^-1
#C  chi  =0.000000 to 360 deg
#C collumns:
#C  1 position (2theta or chi in degrees)
#C  2 average intensity (sum of all counts in the region divided with number of pixels)
#C  3 Number of pixels in region)
#C  4 error (sum of sqrt(intensity) for all pixels divided by number)
#N 4
#L TTh  Int  N_pix  Err
32.99 	0.065574 	61 	0.065574
33.03 	0.063264 	1391 	0.061579
33.07 	0.057073 	2050 	0.056787
33.11 	0.055836 	2579 	0.055154
33.15 	0.063354 	2999 	0.062573
33.19 	0.057451 	3342 	0.056574
33.23 	0.053931 	3523 	0.052601
33.27 	0.060331 	3630 	0.060008
33.31 	0.061475 	3660 	0.059689
33.35 	0.063617 	3694 	0.062031
33.39 	0.053902 	3729 	0.052959
33.43 	0.063813 	3761 	0.062567
33.47 	0.064244 	3798 	0.062060
33.51 	0.061861 	3815 	0.060940
33.55 	0.062711 	3843 	0.061797
33.59 	0.062371 	3880 	0.060837
33.63 	0.056647 	3919 	0.055750
33.67 	0.063986 	3954 	0.062801
33.71 	0.062138 	3975 	0.060959
33.75 	0.058765 	3999 	0.057886
33.79 	0.059639 	4041 	0.058769
33.83 	0.055309 	4050 	0.054296
33.87 	0.060326 	4111 	0.058616
33.91 	0.064835 	4149 	0.063705
33.95 	0.065535 	4181 	0.063830
33.99 	0.060714 	4200 	0.059738
34.03 	0.056786 	4244 	0.055797
34.07 	0.058107 	4268 	0.057421
34.11 	0.056950 	4302 	0.056406
34.15 	0.058647 	4331 	0.057700
34.19 	0.057542 	4362 	0.057274
34.23 	0.058275 	4393 	0.057608
34.27 	0.063998 	4422 	0.062673
34.31 	0.057649 	4458 	0.057255
34.35 	0.058876 	4484 	0.057962
34.39 	0.052865 	4502 	0.052215
34.43 	0.060366 	4539 	0.058817
34.47 	0.053354 	4592 	0.053099
34.51 	0.051020 	4606 	0.050130
34.55 	0.055352 	4643 	0.054721
34.59 	0.060107 	4675 	0.058708
34.63 	0.058599 	4710 	0.057853
34.67 	0.053575 	4741 	0.052834
34.71 	0.062736 	4766 	0.061630
34.75 	0.061356 	4808 	0.060625
34.79 	0.054934 	4824 	0.054205
34.83 	0.051419 	4862 	0.050696
34.87 	0.056697 	4868 	0.056215
34.91 	0.054691 	4882 	0.053731
34.95 	0.057260 	4890 	0.056401
34.99 	0.062079 	4897 	0.060643
35.03 	0.063120 	4943 	0.061223
35.07 	0.060931 	4940 	0.059627
35.11 	0.056802 	4947 	0.055973
35.15 	0.063804 	4937 	0.062499
35.19 	0.054634 	4942 	0.053093
35.23 	0.053185 	4945 	0.052474
35.27 	0.061641 	4948 	0.060457
35.31 	0.055544 	4933 	0.054238
35.35 	0.051801 	4942 	0.051208
35.39 	0.060061 	4945 	0.059350
35.43 	0.059801 	4933 	0.059326
35.47 	0.055161 	4931 	0.054073
35.51 	0.056232 	4926 	0.055638
35.55 	0.058038 	4945 	0.057209
35.59 	0.059050 	4945 	0.057746
35.63 	0.056241 	4943 	0.055175
35.67 	0.065763 	4942 	0.064202
35.71 	0.057120 	4937 	0.056052
35.75 	0.063882 	4931 	0.062218
35.79 	0.064882 	4932 	0.063101
35.83 	0.051759 	4946 	0.051048
35.87 	0.062563 	4923 	0.061235
35.91 	0.058859 	4927 	0.057789
35.95 	0.063250 	4917 	0.062297
35.99 	0.056287 	4939 	0.055694
36.03 	0.058669 	4943 	0.057721
36.07 	0.065803 	4939 	0.064854
36.11 	0.056401 	4929 	0.055549
36.15 	0.061146 	4939 	0.060197
36.19 	0.060729 	4940 	0.059662
36.23 	0.060588 	4935 	0.058570
36.27 	0.052792 	4925 	0.051840
36.31 	0.062906 	4928 	0.061836
36.35 	0.052140 	4929 	0.051546
36.39 	0.061776 	4921 	0.060943
36.43 	0.064123 	4928 	0.062816
36.47 	0.055713 	4936 	0.054882
36.51 	0.067302 	4933 	0.066233
36.55 	0.063325 	4927 	0.062373
36.59 	0.059729 	4939 	0.058523
36.63 	0.061245 	4931 	0.060532
36.67 	0.059838 	4930 	0.058768
36.71 	0.063402 	4921 	0.062211
36.75 	0.058859 	4944 	0.057655
36.79 	0.058931 	4921 	0.057503
36.83 	0.056968 	4915 	0.056134
36.87 	0.055421 	4944 	0.054828
36.91 	0.060919 	4941 	0.059970
36.95 	0.056963 	4933 	0.055776
36.99 	0.055117 	4935 	0.054286
37.03 	0.055443 	4924 	0.054729
37.07 	0.053698 	4935 	0.052986
37.11 	0.059777 	4935 	0.058689
37.15 	0.062131 	4909 	0.060580
37.19 	0.057056 	4925 	0.056104
37.23 	0.055714 	4918 	0.054761
37.27 	0.054761 	4894 	0.054162
37.31 	0.065248 	4935 	0.064180
37.35 	0.053260 	4938 	0.052430
37.39 	0.053742 	4931 	0.053148
37.43 	0.060016 	4932 	0.058571
37.47 	0.058835 	4929 	0.057528
37.51 	0.061018 	4933 	0.060305
37.55 	0.050507 	4930 	0.049438
37.59 	0.052899 	4915 	0.052184
37.63 	0.045538 	4919 	0.044942
37.67 	0.049959 	4904 	0.049481
37.71 	0.054169 	4929 	0.053694
37.75 	0.047368 	4940 	0.046301
37.79 	0.054767 	4930 	0.053797
37.83 	0.055285 	4920 	0.054570
37.87 	0.054262 	4939 	0.053669
37.91 	0.050304 	4930 	0.049829
37.95 	0.053444 	4921 	0.053206
37.99 	0.055782 	4912 	0.054947
38.03 	0.052353 	4909 	0.051398
38.07 	0.059483 	4909 	0.058767
38.11 	0.050456 	4935 	0.049625
38.15 	0.053884 	4918 	0.053169
38.19 	0.052941 	4930 	0.052109
38.23 	0.052045 	4938 	0.051215
38.27 	0.052738 	4930 	0.052025
38.31 	0.060077 	4927 	0.059007
38.35 	0.054789 	4928 	0.053600
38.39 	0.058464 	4909 	0.057271
38.43 	0.056550 	4916 	0.055716
38.47 	0.064805 	4907 	0.062995
38.51 	0.063260 	4932 	0.062310
38.55 	0.069287 	4936 	0.067981
38.59 	0.059301 	4924 	0.058112
38.63 	0.065800 	4924 	0.064016
38.67 	0.065019 	4937 	0.063595
38.71 	0.066409 	4924 	0.064843
38.75 	0.059062 	4927 	0.058349
38.79 	0.058979 	4934 	0.058147
38.83 	0.058548 	4919 	0.057338
38.87 	0.055793 	4911 	0.054839
38.91 	0.056904 	4903 	0.055829
38.95 	0.054087 	4918 	0.053611
38.99 	0.054284 	4937 	0.053572
39.03 	0.052493 	4934 	0.051781
39.07 	0.043867 	4924 	0.043391
39.11 	0.047658 	4931 	0.046707
39.15 	0.045575 	4915 	0.045098
39.19 	0.043726 	4917 	0.042892
39.23 	0.042843 	4925 	0.042129
39.27 	0.045621 	4910 	0.045383
39.31 	0.046683 	4884 	0.046443
39.35 	0.052077 	4935 	0.051009
39.39 	0.050923 	4929 	0.050329
39.43 	0.046422 	4933 	0.045591
39.47 	0.050376 	4923 	0.050257
39.51 	0.045491 	4924 	0.044659
39.55 	0.050010 	4919 	0.049534
39.59 	0.050489 	4912 	0.049892
39.63 	0.043885 	4922 	0.043647
39.67 	0.052514 	4913 	0.051798
39.71 	0.050460 	4895 	0.049861
39.75 	0.051136 	4928 	0.050185
39.79 	0.047097 	4926 	0.046384
39.83 	0.043373 	4934 	0.042898
39.87 	0.046497 	4925 	0.046260
39.91 	0.047542 	4922 	0.047304
39.95 	0.048627 	4915 	0.047654
39.99 	0.051298 	4932 	0.050941
40.03 	0.046469 	4928 	0.045994
40.07 	0.044688 	4923 	0.044212
40.11 	0.043531 	4916 	0.042816
40.15 	0.043965 	4913 	0.043011
40.19 	0.042605 	4929 	0.042605
40.23 	0.043390 	4932 	0.043153
40.27 	0.036864 	4937 	0.036153
40.31 	0.046366 	4939 	0.045516
40.35 	0.039642 	4919 	0.039404
40.39 	0.038735 	4931 	0.038141
40.43 	0.039618 	4922 	0.039142
40.47 	0.042497 	4918 	0.042259
40.51 	0.042056 	4922 	0.040985
40.55 	0.041972 	4908 	0.041256
40.59 	0.047600 	4937 	0.046769
40.63 	0.044625 	4930 	0.044149
40.67 	0.042174 	4932 	0.041560
40.71 	0.044201 	4932 	0.043726
40.75 	0.046035 	4931 	0.045204
40.79 	0.048944 	4924 	0.048587
40.83 	0.050528 	4928 	0.049696
40.87 	0.039570 	4928 	0.039213
40.91 	0.044688 	4923 	0.044212
40.95 	0.044779 	4913 	0.043945
40.99 	0.049350 	4924 	0.048636
41.03 	0.043833 	4905 	0.043475
41.07 	0.046247 	4930 	0.045535
41.11 	0.039311 	4935 	0.038718
41.15 	0.043918 	4941 	0.042950
41.19 	0.047465 	4930 	0.046870
41.23 	0.038672 	4939 	0.038316
41.27 	0.044413 	4931 	0.043819
41.31 	0.045611 	4933 	0.045255
41.35 	0.041312 	4938 	0.041075
41.39 	0.038719 	4933 	0.038006
41.43 	0.038547 	4929 	0.038072
41.47 	0.046285 	4926 	0.045552
41.51 	0.040486 	4940 	0.040249
41.55 	0.039919 	4935 	0.039800
41.59 	0.043989 	4933 	0.043158
41.63 	0.051843 	4938 	0.051012
41.67 	0.041296 	4940 	0.040584
41.71 	0.042359 	4934 	0.041647
41.75 	0.045242 	4929 	0.044648
41.79 	0.045105 	4944 	0.044276
41.83 	0.040381 	4928 	0.039549
41.87 	0.037893 	4935 	0.037893
41.91 	0.038290 	4936 	0.037459
41.95 	0.048063 	4931 	0.047707
41.99 	0.041182 	4905 	0.040346
42.03 	0.037659 	4939 	0.037066
42.07 	0.045169 	4937 	0.044339
42.11 	0.041052 	4945 	0.040222
42.15 	0.037870 	4938 	0.037514
42.19 	0.044825 	4908 	0.044228
42.23 	0.045585 	4892 	0.045345
42.27 	0.041855 	4874 	0.041735
42.31 	0.038929 	4855 	0.038567
42.35 	0.043820 	4838 	0.043457
42.39 	0.038718 	4804 	0.038352
42.43 	0.042988 	4792 	0.041990
42.47 	0.042602 	4765 	0.041865
42.51 	0.043222 	4743 	0.042728
42.55 	0.039932 	4708 	0.039310
42.59 	0.036371 	4729 	0.035628
42.63 	0.037588 	4709 	0.037090
42.67 	0.043980 	4684 	0.043604
42.71 	0.043320 	4663 	0.042440
42.75 	0.040936 	4617 	0.040428
42.79 	0.041685 	4582 	0.041173
42.83 	0.032848 	4536 	0.032719
42.87 	0.045566 	4499 	0.044784
42.91 	0.041068 	4456 	0.040674
42.95 	0.038723 	4416 	0.038325
42.99 	0.045154 	4385 	0.044219
43.03 	0.043157 	4333 	0.042346
43.07 	0.042598 	4296 	0.041916
43.11 	0.036663 	4255 	0.036112
43.15 	0.044460 	4206 	0.044182
43.19 	0.041488 	4194 	0.040929
43.23 	0.039480 	4154 	0.039057
43.27 	0.034836 	4105 	0.034265
43.31 	0.041922 	4079 	0.041204
43.35 	0.039683 	4032 	0.039537
43.39 	0.044478 	4002 	0.043746
43.43 	0.036616 	3960 	0.035581
43.47 	0.043356 	3921 	0.042609
43.51 	0.038690 	3877 	0.037934
43.55 	0.042510 	2964 	0.042312
43.59 	0.037228 	1746 	0.036892
43.63 	0.040959 	1001 	0.040959
43.67 	0.033865 	502 	0.031531
43.71 	0.066946 	239 	0.064495
43.75 	0.062500 	16 	0.062500