File: Example_Data/25SC_s1_0042.004.dat
#F C:\frames\spec\25SC_s1_0042.004
#C title =s:42 frm:4 25SC_s1
#C wavelength =0.15406

#S 1  fr_average C:\frames\spec\25SC_s1_0042.004 C:\win32app\speccom\mask.axs chi 0 180 0 360 0.02
#C 2 theta =0.000000 to 180 deg
#C   q   =0.000000 to 81.568 nm^-1
#C  chi  =0.000000 to 360 deg
#C collumns:
#C  1 position (2theta or chi in degrees)
#C  2 average intensity (sum of all counts in the region divided with number of pixels)
#C  3 Number of pixels in region)
#C  4 error (sum of sqrt(intensity) for all pixels divided by number)
#N 4
#L TTh  Int  N_pix  Err
32.99 	0.049180 	61 	0.049180
33.03 	0.056075 	1391 	0.054811
33.07 	0.056585 	2050 	0.054585
33.11 	0.055836 	2579 	0.055381
33.15 	0.051350 	2999 	0.050764
33.19 	0.057451 	3342 	0.056399
33.23 	0.063866 	3523 	0.062536
33.27 	0.058678 	3630 	0.057871
33.31 	0.048087 	3660 	0.047127
33.35 	0.056849 	3694 	0.055422
33.39 	0.063824 	3729 	0.062227
33.43 	0.055836 	3761 	0.054434
33.47 	0.061611 	3798 	0.061149
33.51 	0.060288 	3815 	0.059521
33.55 	0.063492 	3843 	0.062882
33.59 	0.057216 	3880 	0.056613
33.63 	0.063792 	3919 	0.062297
33.67 	0.053870 	3954 	0.053425
33.71 	0.055849 	3975 	0.055112
33.75 	0.058515 	3999 	0.057343
33.79 	0.052462 	4041 	0.051448
33.83 	0.056543 	4050 	0.055820
33.87 	0.054488 	4111 	0.053491
33.91 	0.065799 	4149 	0.064811
33.95 	0.054054 	4181 	0.052770
33.99 	0.052381 	4200 	0.051684
34.03 	0.057257 	4244 	0.056291
34.07 	0.061387 	4268 	0.060152
34.11 	0.060902 	4302 	0.060221
34.15 	0.056338 	4331 	0.055256
34.19 	0.060523 	4362 	0.059583
34.23 	0.060779 	4393 	0.060112
34.27 	0.058345 	4422 	0.057550
34.31 	0.051817 	4458 	0.050613
34.35 	0.056869 	4484 	0.055954
34.39 	0.049756 	4502 	0.049105
34.43 	0.061247 	4539 	0.060085
34.47 	0.053571 	4592 	0.052678
34.51 	0.062744 	4606 	0.061324
34.55 	0.062029 	4643 	0.061272
34.59 	0.050481 	4675 	0.049729
34.63 	0.057537 	4710 	0.056791
34.67 	0.056950 	4741 	0.056085
34.71 	0.064624 	4766 	0.063498
34.75 	0.052829 	4808 	0.052341
34.79 	0.056799 	4824 	0.055828
34.83 	0.055121 	4862 	0.054519
34.87 	0.058546 	4868 	0.057322
34.91 	0.061450 	4882 	0.060250
34.95 	0.055010 	4890 	0.054531
34.99 	0.062283 	4897 	0.061446
35.03 	0.058467 	4943 	0.057755
35.07 	0.060121 	4940 	0.059291
35.11 	0.054174 	4947 	0.052398
35.15 	0.060361 	4937 	0.059293
35.19 	0.052206 	4942 	0.051139
35.23 	0.055207 	4945 	0.054023
35.27 	0.055174 	4948 	0.054108
35.31 	0.055544 	4933 	0.054476
35.35 	0.057871 	4942 	0.056923
35.39 	0.056623 	4945 	0.055675
35.43 	0.059193 	4933 	0.057967
35.47 	0.057798 	4931 	0.056590
35.51 	0.058262 	4926 	0.056340
35.55 	0.049141 	4945 	0.048667
35.59 	0.065319 	4945 	0.064134
35.63 	0.060085 	4943 	0.059255
35.67 	0.058681 	4942 	0.057476
35.71 	0.057120 	4937 	0.056289
35.75 	0.059826 	4931 	0.058994
35.79 	0.061030 	4932 	0.059961
35.83 	0.055196 	4946 	0.054249
35.87 	0.057485 	4923 	0.056652
35.91 	0.052567 	4927 	0.051973
35.95 	0.060809 	4917 	0.059737
35.99 	0.051427 	4939 	0.050597
36.03 	0.063726 	4943 	0.062186
36.07 	0.056489 	4939 	0.055066
36.11 	0.055386 	4929 	0.054317
36.15 	0.065600 	4939 	0.064651
36.19 	0.059109 	4940 	0.057686
36.23 	0.060182 	4935 	0.058639
36.27 	0.059086 	4925 	0.058492
36.31 	0.061891 	4928 	0.060703
36.35 	0.059444 	4929 	0.058493
36.39 	0.055070 	4921 	0.054118
36.43 	0.059050 	4928 	0.057743
36.47 	0.050648 	4936 	0.049462
36.51 	0.053517 	4933 	0.052805
36.55 	0.052770 	4927 	0.052038
36.59 	0.055679 	4939 	0.055205
36.63 	0.055364 	4931 	0.054651
36.67 	0.059432 	4930 	0.057511
36.71 	0.050803 	4921 	0.049236
36.75 	0.057241 	4944 	0.056412
36.79 	0.058728 	4921 	0.057538
36.83 	0.056968 	4915 	0.055777
36.87 	0.056028 	4944 	0.055554
36.91 	0.051609 	4941 	0.051253
36.95 	0.058382 	4933 	0.056938
36.99 	0.057548 	4935 	0.057192
37.03 	0.054427 	4924 	0.053476
37.07 	0.057143 	4935 	0.056075
37.11 	0.054711 	4935 	0.054118
37.15 	0.057649 	4909 	0.056078
37.19 	0.054416 	4925 	0.053108
37.23 	0.059170 	4918 	0.058317
37.27 	0.054148 	4894 	0.053669
37.31 	0.052482 	4935 	0.051651
37.35 	0.058121 	4938 	0.057053
37.39 	0.057392 	4931 	0.056917
37.43 	0.049067 	4932 	0.048473
37.47 	0.053155 	4929 	0.053036
37.51 	0.057571 	4933 	0.056621
37.55 	0.052738 	4930 	0.052006
37.59 	0.054730 	4915 	0.053777
37.63 	0.051637 	4919 	0.050922
37.67 	0.050163 	4904 	0.049208
37.71 	0.056401 	4929 	0.055569
37.75 	0.055061 	4940 	0.053994
37.79 	0.052941 	4930 	0.052347
37.83 	0.051220 	4920 	0.050862
37.87 	0.052845 	4939 	0.052370
37.91 	0.052333 	4930 	0.051501
37.95 	0.058321 	4921 	0.057607
37.99 	0.048046 	4912 	0.046734
38.03 	0.057038 	4909 	0.056203
38.07 	0.052964 	4909 	0.052129
38.11 	0.054103 	4935 	0.053629
38.15 	0.059374 	4918 	0.058183
38.19 	0.054361 	4930 	0.053529
38.23 	0.051235 	4938 	0.050524
38.27 	0.058621 	4930 	0.057908
38.31 	0.059062 	4927 	0.058230
38.35 	0.050122 	4928 	0.048933
38.39 	0.065186 	4909 	0.064351
38.43 	0.061635 	4916 	0.060444
38.47 	0.070104 	4907 	0.069030
38.51 	0.064274 	4932 	0.062730
38.55 	0.067058 	4936 	0.066109
38.59 	0.060114 	4924 	0.059281
38.63 	0.056864 	4924 	0.056032
38.67 	0.055499 	4937 	0.054075
38.71 	0.060926 	4924 	0.059974
38.75 	0.060077 	4927 	0.058888
38.79 	0.054520 	4934 	0.053570
38.83 	0.055092 	4919 	0.054140
38.87 	0.054775 	4911 	0.053801
38.91 	0.057108 	4903 	0.056152
38.95 	0.051647 	4918 	0.051290
38.99 	0.054892 	4937 	0.053705
39.03 	0.052088 	4934 	0.051019
39.07 	0.055646 	4924 	0.054694
39.11 	0.052119 	4931 	0.051406
39.15 	0.056155 	4915 	0.055082
39.19 	0.054912 	4917 	0.054197
39.23 	0.054213 	4925 	0.053381
39.27 	0.051527 	4910 	0.050315
39.31 	0.049754 	4884 	0.049394
39.35 	0.053495 	4935 	0.052427
39.39 	0.048894 	4929 	0.048300
39.43 	0.052301 	4933 	0.051351
39.47 	0.048141 	4923 	0.047903
39.51 	0.051381 	4924 	0.050429
39.55 	0.053060 	4919 	0.051988
39.59 	0.059243 	4912 	0.058289
39.63 	0.049370 	4922 	0.048775
39.67 	0.055160 	4913 	0.054206
39.71 	0.053933 	4895 	0.053095
39.75 	0.051136 	4928 	0.050542
39.79 	0.057450 	4926 	0.056856
39.83 	0.057762 	4934 	0.057288
39.87 	0.052995 	4925 	0.052281
39.91 	0.056075 	4922 	0.055837
39.95 	0.057782 	4915 	0.056948
39.99 	0.048865 	4932 	0.048152
40.03 	0.048904 	4928 	0.047834
40.07 	0.049563 	4923 	0.048730
40.11 	0.053295 	4916 	0.052223
40.15 	0.049868 	4913 	0.048795
40.19 	0.050112 	4929 	0.048923
40.23 	0.048662 	4932 	0.048424
40.27 	0.048005 	4937 	0.047056
40.31 	0.050820 	4939 	0.050583
40.35 	0.052653 	4919 	0.051700
40.39 	0.052119 	4931 	0.051268
40.43 	0.047338 	4922 	0.046743
40.47 	0.048190 	4918 	0.046999
40.51 	0.053840 	4922 	0.053602
40.55 	0.055827 	4908 	0.055350
40.59 	0.054892 	4937 	0.053942
40.63 	0.053144 	4930 	0.051599
40.67 	0.043187 	4932 	0.042118
40.71 	0.049270 	4932 	0.048201
40.75 	0.055972 	4931 	0.055497
40.79 	0.054021 	4924 	0.053188
40.83 	0.049107 	4928 	0.048869
40.87 	0.054992 	4928 	0.054160
40.91 	0.055657 	4923 	0.054824
40.95 	0.051496 	4913 	0.050423
40.99 	0.050975 	4924 	0.049785
41.03 	0.052803 	4905 	0.051848
41.07 	0.048884 	4930 	0.048290
41.11 	0.051469 	4935 	0.050401
41.15 	0.047561 	4941 	0.046850
41.19 	0.047870 	4930 	0.047395
41.23 	0.047378 	4939 	0.046904
41.27 	0.046846 	4931 	0.046728
41.31 	0.050071 	4933 	0.049477
41.35 	0.048198 	4938 	0.047842
41.39 	0.045003 	4933 	0.044291
41.43 	0.052343 	4929 	0.051135
41.47 	0.050548 	4926 	0.049954
41.51 	0.050202 	4940 	0.049135
41.55 	0.050456 	4935 	0.049744
41.59 	0.046017 	4933 	0.045423
41.63 	0.050020 	4938 	0.049427
41.67 	0.047166 	4940 	0.046573
41.71 	0.046007 	4934 	0.045157
41.75 	0.047271 	4929 	0.046439
41.79 	0.049555 	4944 	0.048844
41.83 	0.050122 	4928 	0.049409
41.87 	0.047011 	4935 	0.046180
41.91 	0.049230 	4936 	0.048399
41.95 	0.052930 	4931 	0.051961
41.99 	0.047910 	4905 	0.047552
42.03 	0.047176 	4939 	0.045871
42.07 	0.050030 	4937 	0.049556
42.11 	0.052174 	4945 	0.051463
42.15 	0.040097 	4938 	0.039623
42.19 	0.048696 	4908 	0.047980
42.23 	0.043949 	4892 	0.042872
42.27 	0.048420 	4874 	0.048300
42.31 	0.049022 	4855 	0.048539
42.35 	0.050434 	4838 	0.049587
42.39 	0.044546 	4804 	0.044058
42.43 	0.051544 	4792 	0.050811
42.47 	0.047009 	4765 	0.046395
42.51 	0.043854 	4743 	0.042866
42.55 	0.044180 	4708 	0.043682
42.59 	0.043561 	4729 	0.043189
42.63 	0.042897 	4709 	0.042026
42.67 	0.048676 	4684 	0.047801
42.71 	0.049968 	4663 	0.049340
42.75 	0.041585 	4617 	0.041057
42.79 	0.049542 	4582 	0.049137
42.83 	0.043430 	4536 	0.042914
42.87 	0.044454 	4499 	0.044064
42.91 	0.046679 	4456 	0.045890
42.95 	0.042346 	4416 	0.041550
42.99 	0.043558 	4385 	0.042489
43.03 	0.042696 	4333 	0.042155
43.07 	0.042132 	4296 	0.041314
43.11 	0.044653 	4255 	0.044378
43.15 	0.043985 	4206 	0.043567
43.19 	0.045541 	4194 	0.044564
43.23 	0.044054 	4154 	0.043631
43.27 	0.041900 	4105 	0.041615
43.31 	0.046580 	4079 	0.045718
43.35 	0.037946 	4032 	0.037511
43.39 	0.048226 	4002 	0.047640
43.43 	0.049495 	3960 	0.048755
43.47 	0.051517 	3921 	0.050472
43.51 	0.047975 	3877 	0.047220
43.55 	0.054656 	2964 	0.053272
43.59 	0.052692 	1746 	0.052021
43.63 	0.048951 	1001 	0.048366
43.67 	0.049801 	502 	0.048634
43.71 	0.054393 	239 	0.051942
43.75 	0.000000 	16 	0.000000