File: Example_Data/25SC_s1_0039.001.dat
#F C:\frames\spec\25SC_s1_0039.001
#C title =s:39 frm:1 25SC_s1
#C wavelength =0.15406

#S 1  fr_average C:\frames\spec\25SC_s1_0039.001 C:\win32app\speccom\mask.axs chi 0 180 0 360 0.02
#C 2 theta =0.000000 to 180 deg
#C   q   =0.000000 to 81.568 nm^-1
#C  chi  =0.000000 to 360 deg
#C collumns:
#C  1 position (2theta or chi in degrees)
#C  2 average intensity (sum of all counts in the region divided with number of pixels)
#C  3 Number of pixels in region)
#C  4 error (sum of sqrt(intensity) for all pixels divided by number)
#N 4
#L TTh  Int  N_pix  Err
32.99 	0.081967 	61 	0.081967
33.03 	0.061107 	1391 	0.060265
33.07 	0.066341 	2050 	0.065484
33.11 	0.059325 	2579 	0.057735
33.15 	0.057686 	2999 	0.055928
33.19 	0.065530 	3342 	0.063952
33.23 	0.057621 	3523 	0.056790
33.27 	0.057576 	3630 	0.055935
33.31 	0.059290 	3660 	0.058809
33.35 	0.056308 	3694 	0.056308
33.39 	0.056852 	3729 	0.056223
33.43 	0.067801 	3761 	0.067334
33.47 	0.056345 	3798 	0.055420
33.51 	0.055308 	3815 	0.054694
33.55 	0.054645 	3843 	0.054035
33.59 	0.059278 	3880 	0.057769
33.63 	0.061750 	3919 	0.060405
33.67 	0.056904 	3954 	0.056164
33.71 	0.066164 	3975 	0.064985
33.75 	0.052263 	3999 	0.052117
33.79 	0.055184 	4041 	0.053880
33.83 	0.063210 	4050 	0.061763
33.87 	0.059596 	4111 	0.058884
33.91 	0.056399 	4149 	0.056117
33.95 	0.060990 	4181 	0.060710
33.99 	0.054524 	4200 	0.053269
34.03 	0.051602 	4244 	0.051188
34.07 	0.057873 	4268 	0.056775
34.11 	0.058577 	4302 	0.057602
34.15 	0.058416 	4331 	0.057469
34.19 	0.060064 	4362 	0.059124
34.23 	0.056681 	4393 	0.056148
34.27 	0.060380 	4422 	0.058525
34.31 	0.062135 	4458 	0.060296
34.35 	0.057092 	4484 	0.056308
34.39 	0.057752 	4502 	0.056581
34.43 	0.059264 	4539 	0.057715
34.47 	0.052918 	4592 	0.052535
34.51 	0.059488 	4606 	0.058089
34.55 	0.057075 	4643 	0.055940
34.59 	0.055615 	4675 	0.055239
34.63 	0.056476 	4710 	0.055356
34.67 	0.050411 	4741 	0.049794
34.71 	0.058540 	4766 	0.057556
34.75 	0.056572 	4808 	0.055598
34.79 	0.054312 	4824 	0.053583
34.83 	0.055327 	4862 	0.054363
34.87 	0.053205 	4868 	0.052122
34.91 	0.056739 	4882 	0.056019
34.95 	0.049898 	4890 	0.049299
34.99 	0.059628 	4897 	0.058432
35.03 	0.064738 	4943 	0.063434
35.07 	0.057895 	4940 	0.057065
35.11 	0.054579 	4947 	0.053513
35.15 	0.057322 	4937 	0.056492
35.19 	0.058681 	4942 	0.057495
35.23 	0.059454 	4945 	0.058743
35.27 	0.052749 	4948 	0.051920
35.31 	0.052098 	4933 	0.051623
35.35 	0.055443 	4942 	0.054495
35.39 	0.057230 	4945 	0.056400
35.43 	0.055950 	4933 	0.055237
35.47 	0.053133 	4931 	0.051826
35.51 	0.056232 	4926 	0.055281
35.55 	0.053994 	4945 	0.053402
35.59 	0.055207 	4945 	0.054477
35.63 	0.052195 	4943 	0.051958
35.67 	0.054836 	4942 	0.053987
35.71 	0.050638 	4937 	0.049807
35.75 	0.058203 	4931 	0.056778
35.79 	0.053933 	4932 	0.053340
35.83 	0.054590 	4946 	0.053997
35.87 	0.055048 	4923 	0.054453
35.91 	0.053379 	4927 	0.052547
35.95 	0.057352 	4917 	0.056518
35.99 	0.059931 	4939 	0.058745
36.03 	0.054420 	4943 	0.053709
36.07 	0.051832 	4939 	0.051477
36.11 	0.056198 	4929 	0.055723
36.15 	0.051630 	4939 	0.050800
36.19 	0.061538 	4940 	0.060471
36.23 	0.054914 	4935 	0.054320
36.27 	0.051777 	4925 	0.050825
36.31 	0.051339 	4928 	0.050250
36.35 	0.058633 	4929 	0.058038
36.39 	0.057509 	4921 	0.056794
36.43 	0.054586 	4928 	0.053853
36.47 	0.060981 	4936 	0.060268
36.51 	0.055342 	4933 	0.053897
36.55 	0.051350 	4927 	0.050874
36.59 	0.057502 	4939 	0.056197
36.63 	0.055972 	4931 	0.055022
36.67 	0.053347 	4930 	0.052634
36.71 	0.051209 	4921 	0.050495
36.75 	0.059871 	4944 	0.059160
36.79 	0.060354 	4921 	0.059758
36.83 	0.054527 	4915 	0.053812
36.87 	0.055825 	4944 	0.054858
36.91 	0.055454 	4941 	0.054387
36.95 	0.053923 	4933 	0.053566
36.99 	0.058764 	4935 	0.057696
37.03 	0.052600 	4924 	0.051886
37.07 	0.055117 	4935 	0.054167
37.11 	0.059372 	4935 	0.057829
37.15 	0.057853 	4909 	0.057256
37.19 	0.053401 	4925 	0.052687
37.23 	0.056120 	4918 	0.055048
37.27 	0.058235 	4894 	0.057277
37.31 	0.056940 	4935 	0.055872
37.35 	0.050425 	4938 	0.049714
37.39 	0.053944 	4931 	0.052994
37.43 	0.055961 	4932 	0.054892
37.47 	0.057415 	4929 	0.056583
37.51 	0.058585 	4933 	0.058348
37.55 	0.053347 	4930 	0.052753
37.59 	0.052085 	4915 	0.050655
37.63 	0.052450 	4919 	0.051735
37.67 	0.054241 	4904 	0.052927
37.71 	0.054372 	4929 	0.053302
37.75 	0.055870 	4940 	0.054922
37.79 	0.050507 	4930 	0.049913
37.83 	0.056504 	4920 	0.055790
37.87 	0.054464 	4939 	0.053871
37.91 	0.056187 	4930 	0.054998
37.95 	0.052225 	4921 	0.051491
37.99 	0.051914 	4912 	0.051556
38.03 	0.051334 	4909 	0.051096
38.07 	0.054390 	4909 	0.053555
38.11 	0.060588 	4935 	0.059638
38.15 	0.058764 	4918 	0.058287
38.19 	0.058418 	4930 	0.057230
38.23 	0.069461 	4938 	0.068631
38.27 	0.066126 	4930 	0.064680
38.31 	0.063730 	4927 	0.062046
38.35 	0.064326 	4928 	0.062980
38.39 	0.073538 	4909 	0.071510
38.43 	0.074247 	4916 	0.073175
38.47 	0.069696 	4907 	0.068861
38.51 	0.071573 	4932 	0.070386
38.55 	0.070502 	4936 	0.069197
38.59 	0.069456 	4924 	0.068246
38.63 	0.070065 	4924 	0.068399
38.67 	0.070691 	4937 	0.069386
38.71 	0.061738 	4924 	0.060787
38.75 	0.059062 	4927 	0.058230
38.79 	0.056141 	4934 	0.055666
38.83 	0.056312 	4919 	0.055955
38.87 	0.047241 	4911 	0.046764
38.91 	0.052417 	4903 	0.051222
38.95 	0.051037 	4918 	0.050441
38.99 	0.049423 	4937 	0.048711
39.03 	0.046210 	4934 	0.045735
39.07 	0.048944 	4924 	0.048587
39.11 	0.042588 	4931 	0.042350
39.15 	0.048627 	4915 	0.048269
39.19 	0.042912 	4917 	0.042555
39.23 	0.048122 	4925 	0.047170
39.27 	0.038493 	4910 	0.038493
39.31 	0.044636 	4884 	0.043916
39.35 	0.039716 	4935 	0.038767
39.39 	0.043417 	4929 	0.042822
39.43 	0.048652 	4933 	0.048058
39.47 	0.042454 	4923 	0.042216
39.51 	0.043867 	4924 	0.043391
39.55 	0.044928 	4919 	0.044571
39.59 	0.050285 	4912 	0.049808
39.63 	0.042056 	4922 	0.041818
39.67 	0.042337 	4913 	0.041860
39.71 	0.046170 	4895 	0.045691
39.75 	0.044237 	4928 	0.043148
39.79 	0.046488 	4926 	0.045755
39.83 	0.043373 	4934 	0.042779
39.87 	0.044264 	4925 	0.043788
39.91 	0.040024 	4922 	0.039548
39.95 	0.045982 	4915 	0.045743
39.99 	0.047648 	4932 	0.047054
40.03 	0.041396 	4928 	0.040564
40.07 	0.044891 	4923 	0.043820
40.11 	0.040480 	4916 	0.040242
40.15 	0.042133 	4913 	0.042014
40.19 	0.042402 	4929 	0.041333
40.23 	0.042376 	4932 	0.041426
40.27 	0.042536 	4937 	0.042417
40.31 	0.040089 	4939 	0.039377
40.35 	0.040049 	4919 	0.039215
40.39 	0.042588 	4931 	0.042212
40.43 	0.042666 	4922 	0.042071
40.47 	0.042904 	4918 	0.042308
40.51 	0.044291 	4922 	0.043220
40.55 	0.041769 	4908 	0.041172
40.59 	0.046587 	4937 	0.046112
40.63 	0.047667 	4930 	0.047192
40.67 	0.044201 	4932 	0.043726
40.71 	0.043187 	4932 	0.042712
40.75 	0.038532 	4931 	0.038413
40.79 	0.038383 	4924 	0.038027
40.83 	0.043831 	4928 	0.043356
40.87 	0.042208 	4928 	0.041713
40.91 	0.040219 	4923 	0.039862
40.95 	0.039284 	4913 	0.039045
40.99 	0.039602 	4924 	0.039364
41.03 	0.039551 	4905 	0.039193
41.07 	0.041988 	4930 	0.041493
41.11 	0.040527 	4935 	0.039459
41.15 	0.034001 	4941 	0.033527
41.19 	0.042191 	4930 	0.041359
41.23 	0.043531 	4939 	0.042938
41.27 	0.041371 	4931 	0.040896
41.31 	0.043989 	4933 	0.043752
41.35 	0.037870 	4938 	0.037395
41.39 	0.039732 	4933 	0.039139
41.43 	0.038953 	4929 	0.038002
41.47 	0.042428 	4926 	0.042071
41.51 	0.036640 	4940 	0.036284
41.55 	0.042756 	4935 	0.042281
41.59 	0.040746 	4933 	0.040034
41.63 	0.035237 	4938 	0.035000
41.67 	0.036032 	4940 	0.035914
41.71 	0.041548 	4934 	0.040955
41.75 	0.039156 	4929 	0.039037
41.79 	0.043083 	4944 	0.042609
41.83 	0.046672 	4928 	0.045959
41.87 	0.036474 	4935 	0.035762
41.91 	0.044368 	4936 	0.043419
41.95 	0.043399 	4931 	0.042924
41.99 	0.038940 	4905 	0.038343
42.03 	0.032395 	4939 	0.032395
42.07 	0.034231 	4937 	0.033994
42.11 	0.034580 	4945 	0.034343
42.15 	0.039895 	4938 	0.039539
42.19 	0.038916 	4908 	0.038797
42.23 	0.038226 	4892 	0.037148
42.27 	0.041034 	4874 	0.040553
42.31 	0.033368 	4855 	0.032885
42.35 	0.032451 	4838 	0.031967
42.39 	0.036012 	4804 	0.035402
42.43 	0.035058 	4792 	0.034672
42.47 	0.036936 	4765 	0.036321
42.51 	0.037529 	4743 	0.037405
42.55 	0.035684 	4708 	0.035166
42.59 	0.040812 	4729 	0.040317
42.63 	0.033553 	4709 	0.033304
42.67 	0.037575 	4684 	0.037450
42.71 	0.037958 	4663 	0.037582
42.75 	0.038986 	4617 	0.038606
42.79 	0.037756 	4582 	0.037373
42.83 	0.037698 	4536 	0.037311
42.87 	0.036675 	4499 	0.036284
42.91 	0.039946 	4456 	0.039552
42.95 	0.038723 	4416 	0.038192
42.99 	0.041505 	4385 	0.041104
43.03 	0.035772 	4333 	0.035502
43.07 	0.040037 	4296 	0.039628
43.11 	0.037368 	4255 	0.036679
43.15 	0.036377 	4206 	0.035959
43.19 	0.039342 	4194 	0.038923
43.23 	0.038036 	4154 	0.037049
43.27 	0.038246 	4105 	0.037961
43.31 	0.038735 	4079 	0.038735
43.35 	0.035218 	4032 	0.034928
43.39 	0.037731 	4002 	0.037585
43.43 	0.035101 	3960 	0.034509
43.47 	0.040296 	3921 	0.039698
43.51 	0.042043 	3877 	0.041111
43.55 	0.040486 	2964 	0.040288
43.59 	0.033219 	1746 	0.033219
43.63 	0.024975 	1001 	0.024975
43.67 	0.021912 	502 	0.020745
43.71 	0.041841 	239 	0.039390
43.75 	0.000000 	16 	0.000000