File: Example_Data/25SC_s1_0033.004.dat
#F C:\frames\spec\25SC_s1_0033.004
#C title =s:33 frm:4 25SC_s1
#C wavelength =0.15406

#S 1  fr_average C:\frames\spec\25SC_s1_0033.004 C:\win32app\speccom\mask.axs chi 0 180 0 360 0.02
#C 2 theta =0.000000 to 180 deg
#C   q   =0.000000 to 81.568 nm^-1
#C  chi  =0.000000 to 360 deg
#C collumns:
#C  1 position (2theta or chi in degrees)
#C  2 average intensity (sum of all counts in the region divided with number of pixels)
#C  3 Number of pixels in region)
#C  4 error (sum of sqrt(intensity) for all pixels divided by number)
#N 4
#L TTh  Int  N_pix  Err
32.99 	0.081967 	61 	0.081967
33.03 	0.057513 	1391 	0.057091
33.07 	0.062439 	2050 	0.061582
33.11 	0.059713 	2579 	0.058577
33.15 	0.058353 	2999 	0.057767
33.19 	0.056553 	3342 	0.055677
33.23 	0.058189 	3523 	0.056693
33.27 	0.058678 	3630 	0.058032
33.31 	0.059836 	3660 	0.059036
33.35 	0.054954 	3694 	0.054478
33.39 	0.056584 	3729 	0.056112
33.43 	0.057432 	3761 	0.056030
33.47 	0.056345 	3798 	0.055883
33.51 	0.068414 	3815 	0.066572
33.55 	0.058808 	3843 	0.057894
33.59 	0.055928 	3880 	0.054997
33.63 	0.058944 	3919 	0.058047
33.67 	0.055134 	3954 	0.053504
33.71 	0.059371 	3975 	0.057578
33.75 	0.053013 	3999 	0.051988
33.79 	0.062856 	4041 	0.061672
33.83 	0.062469 	4050 	0.060878
33.87 	0.061542 	4111 	0.060117
33.91 	0.060738 	4149 	0.059302
33.95 	0.058838 	4181 	0.057717
33.99 	0.055476 	4200 	0.054779
34.03 	0.059142 	4244 	0.058452
34.07 	0.055530 	4268 	0.054409
34.11 	0.054161 	4302 	0.053480
34.15 	0.059571 	4331 	0.059030
34.19 	0.053645 	4362 	0.052974
34.23 	0.056681 	4393 	0.056281
34.27 	0.062189 	4422 	0.060997
34.31 	0.056079 	4458 	0.054896
34.35 	0.058653 	4484 	0.057347
34.39 	0.057752 	4502 	0.056581
34.43 	0.061027 	4539 	0.059994
34.47 	0.055531 	4592 	0.054511
34.51 	0.056882 	4606 	0.055865
34.55 	0.063106 	4643 	0.061844
34.59 	0.063316 	4675 	0.062062
34.63 	0.064331 	4710 	0.063088
34.67 	0.053575 	4741 	0.052834
34.71 	0.056022 	4766 	0.055284
34.75 	0.056572 	4808 	0.056085
34.79 	0.056799 	4824 	0.055464
34.83 	0.058618 	4862 	0.057895
34.87 	0.059367 	4868 	0.058625
34.91 	0.058378 	4882 	0.057298
34.95 	0.052147 	4890 	0.051309
34.99 	0.057178 	4897 	0.056460
35.03 	0.055634 	4943 	0.054686
35.07 	0.058097 	4940 	0.057386
35.11 	0.060441 	4947 	0.059119
35.15 	0.057930 	4937 	0.056981
35.19 	0.063132 	4942 	0.061236
35.23 	0.053589 	4945 	0.052504
35.27 	0.055174 	4948 	0.054582
35.31 	0.053517 	4933 	0.052805
35.35 	0.060299 	4942 	0.059114
35.39 	0.061881 	4945 	0.061288
35.43 	0.053314 	4933 	0.052958
35.47 	0.058000 	4931 	0.056812
35.51 	0.058871 	4926 	0.057682
35.55 	0.055207 	4945 	0.054497
35.59 	0.054398 	4945 	0.053806
35.63 	0.054420 	4943 	0.053097
35.67 	0.050587 	4942 	0.049757
35.71 	0.055904 	4937 	0.055311
35.75 	0.058609 	4931 	0.057658
35.79 	0.061436 	4932 	0.060485
35.83 	0.058431 	4946 	0.057720
35.87 	0.051188 	4923 	0.050236
35.91 	0.055206 	4927 	0.054255
35.95 	0.056132 	4917 	0.055298
35.99 	0.054869 	4939 	0.054039
36.03 	0.058669 	4943 	0.057247
36.07 	0.060539 	4939 	0.059234
36.11 	0.055792 	4929 	0.054841
36.15 	0.061956 	4939 	0.060414
36.19 	0.059717 	4940 	0.059242
36.23 	0.057143 	4935 	0.056549
36.27 	0.055228 	4925 	0.054376
36.31 	0.060268 	4928 	0.059178
36.35 	0.055386 	4929 	0.054198
36.39 	0.056899 	4921 	0.056066
36.43 	0.058036 	4928 	0.057323
36.47 	0.058144 	4936 	0.057076
36.51 	0.057369 	4933 	0.056637
36.55 	0.053988 	4927 	0.052661
36.59 	0.053857 	4939 	0.053264
36.63 	0.053539 	4931 	0.052945
36.67 	0.056998 	4930 	0.056166
36.71 	0.053648 	4921 	0.053052
36.75 	0.057848 	4944 	0.056189
36.79 	0.055070 	4921 	0.053880
36.83 	0.049440 	4915 	0.048964
36.87 	0.058252 	4944 	0.057778
36.91 	0.056466 	4941 	0.055380
36.95 	0.053517 	4933 	0.053042
36.99 	0.056940 	4935 	0.056465
37.03 	0.052396 	4924 	0.051802
37.07 	0.056130 	4935 	0.055536
37.11 	0.056535 	4935 	0.055467
37.15 	0.051334 	4909 	0.050976
37.19 	0.057665 	4925 	0.056575
37.23 	0.055307 	4918 	0.054235
37.27 	0.056191 	4894 	0.055234
37.31 	0.051064 	4935 	0.049264
37.35 	0.054070 	4938 	0.053596
37.39 	0.050700 	4931 	0.049987
37.43 	0.050689 	4932 	0.050096
37.47 	0.056807 	4929 	0.055836
37.51 	0.057977 	4933 	0.057502
37.55 	0.051116 	4930 	0.050759
37.59 	0.050661 	4915 	0.050423
37.63 	0.052653 	4919 	0.051462
37.67 	0.053426 	4904 	0.052470
37.71 	0.057415 	4929 	0.056821
37.75 	0.050202 	4940 	0.049135
37.79 	0.054767 	4930 	0.053935
37.83 	0.055081 	4920 	0.054248
37.87 	0.061348 	4939 	0.060281
37.91 	0.061055 	4930 	0.059748
37.95 	0.054460 	4921 	0.053508
37.99 	0.058225 	4912 	0.057628
38.03 	0.053371 	4909 	0.052775
38.07 	0.058668 	4909 	0.058190
38.11 	0.053901 	4935 	0.052120
38.15 	0.054087 	4918 	0.053611
38.19 	0.064503 	4930 	0.062206
38.23 	0.065209 	4938 	0.063666
38.27 	0.063895 	4930 	0.062706
38.31 	0.069819 	4927 	0.068393
38.35 	0.062297 	4928 	0.061346
38.39 	0.062334 	4909 	0.060783
38.43 	0.062856 	4916 	0.062022
38.47 	0.060933 	4907 	0.060336
38.51 	0.061233 	4932 	0.060164
38.55 	0.059765 	4936 	0.057847
38.59 	0.061738 	4924 	0.061025
38.63 	0.066816 	4924 	0.066102
38.67 	0.058740 	4937 	0.057890
38.71 	0.051990 	4924 	0.051633
38.75 	0.056018 	4927 	0.055661
38.79 	0.049655 	4934 	0.048824
38.83 	0.055296 	4919 	0.054581
38.87 	0.052535 	4911 	0.051223
38.91 	0.053233 	4903 	0.052496
38.95 	0.057340 	4918 	0.056268
38.99 	0.054487 	4937 	0.053162
39.03 	0.048439 	4934 	0.048083
39.07 	0.053209 	4924 	0.052376
39.11 	0.051916 	4931 	0.051441
39.15 	0.052696 	4915 	0.051862
39.19 	0.046776 	4917 	0.046181
39.23 	0.052792 	4925 	0.051840
39.27 	0.049491 	4910 	0.048775
39.31 	0.052621 	4884 	0.052261
39.35 	0.051874 	4935 	0.050925
39.39 	0.051735 	4929 	0.050784
39.43 	0.054936 	4933 	0.053749
39.47 	0.053829 	4923 	0.052758
39.51 	0.052600 	4924 	0.052005
39.55 	0.053669 	4919 	0.052479
39.59 	0.053950 	4912 	0.053115
39.63 	0.048151 	4922 	0.047556
39.67 	0.055567 	4913 	0.054732
39.71 	0.057201 	4895 	0.056364
39.75 	0.049513 	4928 	0.048443
39.79 	0.054608 	4926 	0.053895
39.83 	0.049047 	4934 	0.048335
39.87 	0.052792 	4925 	0.052435
39.91 	0.056887 	4922 	0.055697
39.95 	0.049034 	4915 	0.048795
39.99 	0.050892 	4932 	0.049823
40.03 	0.052760 	4928 	0.052284
40.07 	0.054438 	4923 	0.053605
40.11 	0.055126 	4916 	0.054530
40.15 	0.055770 	4913 	0.054936
40.19 	0.048691 	4929 	0.047622
40.23 	0.048865 	4932 	0.048152
40.27 	0.048815 	4937 	0.047985
40.31 	0.051630 	4939 	0.051274
40.35 	0.050620 	4919 	0.049906
40.39 	0.048266 	4931 	0.047316
40.43 	0.047338 	4922 	0.046862
40.47 	0.047377 	4918 	0.046781
40.51 	0.048761 	4922 	0.048047
40.55 	0.050326 	4908 	0.049849
40.59 	0.048815 	4937 	0.048222
40.63 	0.054361 	4930 	0.053629
40.67 	0.050689 	4932 	0.050333
40.71 	0.051095 	4932 	0.050026
40.75 	0.059623 	4931 	0.058316
40.79 	0.048944 	4924 	0.047973
40.83 	0.051136 	4928 	0.050423
40.87 	0.049919 	4928 	0.048968
40.91 	0.053829 	4923 	0.053353
40.95 	0.050885 	4913 	0.050031
40.99 	0.051990 	4924 	0.051395
41.03 	0.049134 	4905 	0.048536
41.07 	0.052333 	4930 	0.051620
41.11 	0.049848 	4935 	0.049611
41.15 	0.056264 	4941 	0.055197
41.19 	0.046045 	4930 	0.045332
41.23 	0.050010 	4939 	0.049536
41.27 	0.046441 	4931 	0.046203
41.31 	0.048247 	4933 	0.047415
41.35 	0.048603 	4938 	0.048010
41.39 	0.045206 	4933 	0.044256
41.43 	0.051329 	4929 	0.050616
41.47 	0.050548 	4926 	0.050072
41.51 	0.048381 	4940 	0.047551
41.55 	0.042351 	4935 	0.042113
41.59 	0.048855 	4933 	0.048380
41.63 	0.054678 	4938 	0.053848
41.67 	0.048583 	4940 	0.047990
41.71 	0.050263 	4934 	0.049432
41.75 	0.047880 	4929 	0.047167
41.79 	0.047532 	4944 	0.046940
41.83 	0.051542 	4928 	0.050829
41.87 	0.047416 	4935 	0.046823
41.91 	0.044773 	4936 	0.044180
41.95 	0.047860 	4931 	0.047266
41.99 	0.040775 	4905 	0.039919
42.03 	0.046568 	4939 	0.045501
42.07 	0.045372 	4937 	0.044660
42.11 	0.044085 	4945 	0.043611
42.15 	0.046173 	4938 	0.045935
42.19 	0.042991 	4908 	0.042752
42.23 	0.044971 	4892 	0.044612
42.27 	0.044932 	4874 	0.044452
42.31 	0.048198 	4855 	0.047353
42.35 	0.050021 	4838 	0.048931
42.39 	0.043505 	4804 	0.043018
42.43 	0.049040 	4792 	0.048307
42.47 	0.045540 	4765 	0.045049
42.51 	0.051444 	4743 	0.050580
42.55 	0.048641 	4708 	0.048267
42.59 	0.044195 	4729 	0.043700
42.63 	0.045657 	4709 	0.045284
42.67 	0.044833 	4684 	0.044458
42.71 	0.044178 	4663 	0.043173
42.75 	0.044401 	4617 	0.043894
42.79 	0.046050 	4582 	0.045134
42.83 	0.048060 	4536 	0.046769
42.87 	0.044232 	4499 	0.043711
42.91 	0.047576 	4456 	0.047313
42.95 	0.044158 	4416 	0.044025
42.99 	0.049259 	4385 	0.048724
43.03 	0.048234 	4333 	0.047964
43.07 	0.044926 	4296 	0.044221
43.11 	0.048414 	4255 	0.047863
43.15 	0.050166 	4206 	0.049749
43.19 	0.047210 	4194 	0.046070
43.23 	0.051035 	4154 	0.050330
43.27 	0.040926 	4105 	0.040783
43.31 	0.042412 	4079 	0.041838
43.35 	0.043403 	4032 	0.043112
43.39 	0.051224 	4002 	0.050639
43.43 	0.043182 	3960 	0.042738
43.47 	0.045142 	3921 	0.044395
43.51 	0.046170 	3877 	0.045112
43.55 	0.040823 	2964 	0.040230
43.59 	0.042955 	1746 	0.042284
43.63 	0.035964 	1001 	0.035964
43.67 	0.037849 	502 	0.037849
43.71 	0.033473 	239 	0.033473
43.75 	0.000000 	16 	0.000000