File: Example_Data/25SC_s1_0017.003.dat
#F C:\frames\spec\25SC_s1_0017.003
#C title =s:17 frm:3 25SC_s1
#C wavelength =0.15406

#S 1  fr_average C:\frames\spec\25SC_s1_0017.003 C:\win32app\speccom\mask.axs chi 0 180 0 360 0.02
#C 2 theta =0.000000 to 180 deg
#C   q   =0.000000 to 81.568 nm^-1
#C  chi  =0.000000 to 360 deg
#C collumns:
#C  1 position (2theta or chi in degrees)
#C  2 average intensity (sum of all counts in the region divided with number of pixels)
#C  3 Number of pixels in region)
#C  4 error (sum of sqrt(intensity) for all pixels divided by number)
#N 4
#L TTh  Int  N_pix  Err
32.99 	0.065574 	61 	0.065574
33.03 	0.057513 	1391 	0.057513
33.07 	0.052195 	2050 	0.051338
33.11 	0.062815 	2579 	0.060961
33.15 	0.070690 	2999 	0.067760
33.19 	0.067624 	3342 	0.066748
33.23 	0.061028 	3523 	0.059337
33.27 	0.052617 	3630 	0.051596
33.31 	0.060656 	3660 	0.059855
33.35 	0.056037 	3694 	0.054927
33.39 	0.062215 	3729 	0.061587
33.43 	0.058761 	3761 	0.057826
33.47 	0.056082 	3798 	0.055003
33.51 	0.061861 	3815 	0.060479
33.55 	0.066354 	3843 	0.064983
33.59 	0.056186 	3880 	0.055280
33.63 	0.058433 	3919 	0.057387
33.67 	0.057916 	3954 	0.057175
33.71 	0.064151 	3975 	0.063414
33.75 	0.065016 	3999 	0.063405
33.79 	0.061618 	4041 	0.060459
33.83 	0.061975 	4050 	0.060240
33.87 	0.063002 	4111 	0.062004
33.91 	0.063389 	4149 	0.062400
33.95 	0.060033 	4181 	0.059893
33.99 	0.058095 	4200 	0.056979
34.03 	0.066211 	4244 	0.065659
34.07 	0.063261 	4268 	0.062026
34.11 	0.066481 	4302 	0.065391
34.15 	0.060725 	4331 	0.059237
34.19 	0.069005 	4362 	0.067103
34.23 	0.061917 	4393 	0.059917
34.27 	0.060154 	4422 	0.059094
34.31 	0.057425 	4458 	0.056242
34.35 	0.059768 	4484 	0.058854
34.39 	0.057086 	4502 	0.055915
34.43 	0.060806 	4539 	0.059387
34.47 	0.056838 	4592 	0.055945
34.51 	0.062093 	4606 	0.060821
34.55 	0.056214 	4643 	0.054679
34.59 	0.060535 	4675 	0.059407
34.63 	0.055839 	4710 	0.054574
34.67 	0.060958 	4741 	0.059351
34.71 	0.061267 	4766 	0.060161
34.75 	0.065100 	4808 	0.063516
34.79 	0.064262 	4824 	0.062906
34.83 	0.061292 	4862 	0.060067
34.87 	0.062654 	4868 	0.060589
34.91 	0.060221 	4882 	0.059122
34.95 	0.056646 	4890 	0.056287
34.99 	0.056361 	4897 	0.055763
35.03 	0.056848 	4943 	0.055900
35.07 	0.064372 	4940 	0.063542
35.11 	0.057004 	4947 	0.055209
35.15 	0.059550 	4937 	0.058601
35.19 	0.061716 	4942 	0.061005
35.23 	0.062690 	4945 	0.062097
35.27 	0.060428 	4948 	0.058771
35.31 	0.060612 	4933 	0.059306
35.35 	0.059288 	4942 	0.058695
35.39 	0.059252 	4945 	0.057949
35.43 	0.057166 	4933 	0.056315
35.47 	0.061448 	4931 	0.060122
35.51 	0.062525 	4926 	0.060960
35.55 	0.058847 	4945 	0.057406
35.59 	0.060667 	4945 	0.060075
35.63 	0.051790 	4943 	0.051316
35.67 	0.064751 	4942 	0.063191
35.71 	0.061171 	4937 	0.059866
35.75 	0.059826 	4931 	0.058756
35.79 	0.055353 	4932 	0.053928
35.83 	0.057622 	4946 	0.056438
35.87 	0.058501 	4923 	0.057053
35.91 	0.061295 	4927 	0.059968
35.95 	0.057962 	4917 	0.056632
35.99 	0.056084 	4939 	0.055610
36.03 	0.049767 	4943 	0.049293
36.07 	0.062361 	4939 	0.061056
36.11 	0.054575 	4929 	0.054100
36.15 	0.059121 	4939 	0.058054
36.19 	0.059717 	4940 	0.058887
36.23 	0.059169 	4935 	0.058220
36.27 	0.057056 	4925 	0.056580
36.31 	0.055804 	4928 	0.054714
36.35 	0.057415 	4929 	0.055751
36.39 	0.060354 	4921 	0.059639
36.43 	0.060674 	4928 	0.059485
36.47 	0.059157 	4936 	0.057970
36.51 	0.059396 	4933 	0.057714
36.55 	0.053988 	4927 	0.053156
36.59 	0.055477 	4939 	0.054884
36.63 	0.053336 	4931 	0.052148
36.67 	0.054361 	4930 	0.053529
36.71 	0.054460 	4921 	0.053865
36.75 	0.059668 	4944 	0.058128
36.79 	0.052632 	4921 	0.052394
36.83 	0.051882 	4915 	0.051405
36.87 	0.055218 	4944 	0.054389
36.91 	0.060312 	4941 	0.059008
36.95 	0.057977 	4933 	0.057264
36.99 	0.055117 	4935 	0.054286
37.03 	0.060114 	4924 	0.059261
37.07 	0.052888 	4935 	0.052531
37.11 	0.056332 	4935 	0.055383
37.15 	0.055816 	4909 	0.054742
37.19 	0.057462 	4925 	0.056629
37.23 	0.051850 	4918 	0.051136
37.27 	0.060278 	4894 	0.059679
37.31 	0.051672 	4935 	0.050960
37.35 	0.050425 	4938 	0.049832
37.39 	0.053539 	4931 	0.053064
37.43 	0.056367 	4932 	0.055773
37.47 	0.054981 	4929 	0.054149
37.51 	0.055747 	4933 	0.055510
37.55 	0.048682 	4930 	0.048206
37.59 	0.057375 	4915 	0.056541
37.63 	0.049604 	4919 	0.049127
37.67 	0.053222 	4904 	0.052147
37.71 	0.056604 	4929 	0.055415
37.75 	0.054656 	4940 	0.053351
37.79 	0.055578 	4930 	0.054608
37.83 	0.047764 	4920 	0.047288
37.87 	0.055072 	4939 	0.053036
37.91 	0.052941 	4930 	0.052228
37.95 	0.052428 	4921 	0.051595
37.99 	0.054357 	4912 	0.053283
38.03 	0.056427 	4909 	0.055472
38.07 	0.051131 	4909 	0.049699
38.11 	0.056738 	4935 	0.056025
38.15 	0.055510 	4918 	0.054677
38.19 	0.056389 	4930 	0.055558
38.23 	0.054070 	4938 	0.053596
38.27 	0.053550 	4930 	0.052837
38.31 	0.056018 	4927 	0.055423
38.35 	0.055601 	4928 	0.055244
38.39 	0.061520 	4909 	0.060326
38.43 	0.066924 	4916 	0.065137
38.47 	0.059711 	4907 	0.058875
38.51 	0.058394 	4932 	0.057800
38.55 	0.058955 	4936 	0.058480
38.59 	0.056255 	4924 	0.055065
38.63 	0.051178 	4924 	0.050583
38.67 	0.059955 	4937 	0.059481
38.71 	0.054833 	4924 	0.053882
38.75 	0.052770 	4927 	0.052652
38.79 	0.050466 	4934 	0.049754
38.83 	0.049400 	4919 	0.049281
38.87 	0.051721 	4911 	0.050150
38.91 	0.051193 	4903 	0.050476
38.95 	0.044530 	4918 	0.043935
38.99 	0.050841 	4937 	0.049397
39.03 	0.047426 	4934 	0.046832
39.07 	0.044882 	4924 	0.044644
39.11 	0.043805 	4931 	0.042735
39.15 	0.051475 	4915 	0.050879
39.19 	0.048403 	4917 	0.047927
39.23 	0.043858 	4925 	0.043620
39.27 	0.049898 	4910 	0.049063
39.31 	0.050983 	4884 	0.049783
39.35 	0.055724 	4935 	0.054419
39.39 	0.045851 	4929 	0.045118
39.43 	0.047233 	4933 	0.046758
39.47 	0.044485 	4923 	0.043871
39.51 	0.051584 	4924 	0.051108
39.55 	0.049604 	4919 	0.048155
39.59 	0.053950 	4912 	0.052499
39.63 	0.046932 	4922 	0.046218
39.67 	0.051903 	4913 	0.051665
39.71 	0.043309 	4895 	0.042711
39.75 	0.049310 	4928 	0.048716
39.79 	0.052375 	4926 	0.051662
39.83 	0.046007 	4934 	0.045651
39.87 	0.046701 	4925 	0.045987
39.91 	0.045713 	4922 	0.045237
39.95 	0.052899 	4915 	0.052184
39.99 	0.048054 	4932 	0.047578
40.03 	0.045049 	4928 	0.043741
40.07 	0.045704 	4923 	0.044990
40.11 	0.044142 	4916 	0.043665
40.15 	0.050885 	4913 	0.050528
40.19 	0.054372 	4929 	0.052827
40.23 	0.042985 	4932 	0.042628
40.27 	0.046587 	4937 	0.045875
40.31 	0.049200 	4939 	0.048370
40.35 	0.049807 	4919 	0.049073
40.39 	0.045021 	4931 	0.044309
40.43 	0.045104 	4922 	0.044628
40.47 	0.048800 	4918 	0.048205
40.51 	0.053230 	4922 	0.052278
40.55 	0.046251 	4908 	0.045774
40.59 	0.046182 	4937 	0.045589
40.63 	0.046856 	4930 	0.046381
40.67 	0.045012 	4932 	0.044181
40.71 	0.042579 	4932 	0.041273
40.75 	0.047049 	4931 	0.046218
40.79 	0.049147 	4924 	0.048552
40.83 	0.045657 	4928 	0.045301
40.87 	0.047078 	4928 	0.046246
40.91 	0.046923 	4923 	0.046685
40.95 	0.047425 	4913 	0.046829
40.99 	0.045085 	4924 	0.044728
41.03 	0.049541 	4905 	0.048944
41.07 	0.041379 	4930 	0.041142
41.11 	0.045998 	4935 	0.045167
41.15 	0.045335 	4941 	0.044624
41.19 	0.043205 	4930 	0.042611
41.23 	0.046771 	4939 	0.046178
41.27 	0.045021 	4931 	0.044665
41.31 	0.047841 	4933 	0.047366
41.35 	0.046780 	4938 	0.045930
41.39 	0.046017 	4933 	0.045423
41.43 	0.042199 	4929 	0.041843
41.47 	0.039992 	4926 	0.039873
41.51 	0.047368 	4940 	0.046776
41.55 	0.040729 	4935 	0.040492
41.59 	0.045408 	4933 	0.045052
41.63 	0.046780 	4938 	0.046306
41.67 	0.041498 	4940 	0.041142
41.71 	0.042562 	4934 	0.042087
41.75 	0.041185 	4929 	0.040353
41.79 	0.043689 	4944 	0.043571
41.83 	0.039976 	4928 	0.039738
41.87 	0.045390 	4935 	0.044678
41.91 	0.047407 	4936 	0.046576
41.95 	0.046441 	4931 	0.046084
41.99 	0.043833 	4905 	0.043236
42.03 	0.040494 	4939 	0.040138
42.07 	0.045777 	4937 	0.044946
42.11 	0.043074 	4945 	0.042482
42.15 	0.044957 	4938 	0.044483
42.19 	0.042991 	4908 	0.042136
42.23 	0.040474 	4892 	0.039397
42.27 	0.045137 	4874 	0.044897
42.31 	0.041401 	4855 	0.041159
42.35 	0.045060 	4838 	0.044697
42.39 	0.043089 	4804 	0.042601
42.43 	0.043197 	4792 	0.042321
42.47 	0.047429 	4765 	0.046937
42.51 	0.035631 	4743 	0.035508
42.55 	0.042693 	4708 	0.042444
42.59 	0.041446 	4729 	0.041323
42.63 	0.043321 	4709 	0.042575
42.67 	0.041418 	4684 	0.040667
42.71 	0.042676 	4663 	0.042300
42.75 	0.043968 	4617 	0.042932
42.79 	0.042121 	4582 	0.041610
42.83 	0.040564 	4536 	0.040177
42.87 	0.040231 	4499 	0.040101
42.91 	0.041068 	4456 	0.040674
42.95 	0.045743 	4416 	0.045345
42.99 	0.037172 	4385 	0.037039
43.03 	0.039926 	4333 	0.039656
43.07 	0.048184 	4296 	0.047230
43.11 	0.041598 	4255 	0.041185
43.15 	0.044460 	4206 	0.043903
43.19 	0.041965 	4194 	0.041406
43.23 	0.040924 	4154 	0.040360
43.27 	0.044336 	4105 	0.044051
43.31 	0.039716 	4079 	0.039428
43.35 	0.040427 	4032 	0.039700
43.39 	0.038481 	4002 	0.038042
43.43 	0.039899 	3960 	0.039603
43.47 	0.044631 	3921 	0.043735
43.51 	0.037658 	3877 	0.037205
43.55 	0.045547 	2964 	0.044954
43.59 	0.037228 	1746 	0.037228
43.63 	0.039960 	1001 	0.039375
43.67 	0.055777 	502 	0.055777
43.71 	0.037657 	239 	0.037657
43.75 	0.000000 	16 	0.000000