File: Example_Data/25SC_s1_0015.003.dat
#F C:\frames\spec\25SC_s1_0015.003
#C title =s:15 frm:3 25SC_s1
#C wavelength =0.15406

#S 1  fr_average C:\frames\spec\25SC_s1_0015.003 C:\win32app\speccom\mask.axs chi 0 180 0 360 0.02
#C 2 theta =0.000000 to 180 deg
#C   q   =0.000000 to 81.568 nm^-1
#C  chi  =0.000000 to 360 deg
#C collumns:
#C  1 position (2theta or chi in degrees)
#C  2 average intensity (sum of all counts in the region divided with number of pixels)
#C  3 Number of pixels in region)
#C  4 error (sum of sqrt(intensity) for all pixels divided by number)
#N 4
#L TTh  Int  N_pix  Err
32.99 	0.016393 	61 	0.016393
33.03 	0.056794 	1391 	0.055530
33.07 	0.058049 	2050 	0.057763
33.11 	0.064754 	2579 	0.063845
33.15 	0.059687 	2999 	0.058710
33.19 	0.057750 	3342 	0.056873
33.23 	0.055351 	3523 	0.054519
33.27 	0.064187 	3630 	0.063219
33.31 	0.052732 	3660 	0.051772
33.35 	0.056849 	3694 	0.055739
33.39 	0.055779 	3729 	0.055151
33.43 	0.062749 	3761 	0.061659
33.47 	0.058978 	3798 	0.058182
33.51 	0.058978 	3815 	0.057596
33.55 	0.061671 	3843 	0.060299
33.59 	0.061340 	3880 	0.060434
33.63 	0.057668 	3919 	0.056920
33.67 	0.054628 	3954 	0.053443
33.71 	0.066164 	3975 	0.065574
33.75 	0.057264 	3999 	0.056092
33.79 	0.057164 	4041 	0.056004
33.83 	0.056543 	4050 	0.055652
33.87 	0.060326 	4111 	0.058616
33.91 	0.067004 	4149 	0.065569
33.95 	0.058120 	4181 	0.057700
33.99 	0.059286 	4200 	0.057450
34.03 	0.058200 	4244 	0.057349
34.07 	0.059747 	4268 	0.058374
34.11 	0.059275 	4302 	0.058185
34.15 	0.053336 	4331 	0.052390
34.19 	0.055250 	4362 	0.054310
34.23 	0.058275 	4393 	0.057074
34.27 	0.062867 	4422 	0.062205
34.31 	0.060341 	4458 	0.059421
34.35 	0.054862 	4484 	0.054078
34.39 	0.060862 	4502 	0.059431
34.43 	0.061908 	4539 	0.060746
34.47 	0.062500 	4592 	0.061862
34.51 	0.058619 	4606 	0.057856
34.55 	0.063752 	4643 	0.062490
34.59 	0.061390 	4675 	0.060263
34.63 	0.058599 	4710 	0.057604
34.67 	0.056950 	4741 	0.055344
34.71 	0.056232 	4766 	0.055740
34.75 	0.057196 	4808 	0.055856
34.79 	0.055141 	4824 	0.054170
34.83 	0.054916 	4862 	0.053470
34.87 	0.061011 	4868 	0.059527
34.91 	0.061041 	4882 	0.059941
34.95 	0.060123 	4890 	0.059404
34.99 	0.059424 	4897 	0.058946
35.03 	0.058062 	4943 	0.057114
35.07 	0.054858 	4940 	0.054384
35.11 	0.064079 	4947 	0.062639
35.15 	0.055499 	4937 	0.054787
35.19 	0.064549 	4942 	0.063245
35.23 	0.057027 	4945 	0.056553
35.27 	0.060024 	4948 	0.059432
35.31 	0.063450 	4933 	0.062263
35.35 	0.060704 	4942 	0.059519
35.39 	0.062285 	4945 	0.061101
35.43 	0.058990 	4933 	0.058278
35.47 	0.062868 	4931 	0.061422
35.51 	0.055826 	4926 	0.054499
35.55 	0.057836 	4945 	0.056059
35.59 	0.063903 	4945 	0.063074
35.63 	0.056646 	4943 	0.055915
35.67 	0.061514 	4942 	0.060091
35.71 	0.065627 	4937 	0.064322
35.75 	0.061448 	4931 	0.060359
35.79 	0.062247 	4932 	0.061178
35.83 	0.060049 	4946 	0.059101
35.87 	0.062767 	4923 	0.061339
35.91 	0.056627 	4927 	0.055794
35.95 	0.056945 	4917 	0.056111
35.99 	0.055274 	4939 	0.054563
36.03 	0.053813 	4943 	0.052628
36.07 	0.058919 	4939 	0.057970
36.11 	0.052952 	4929 	0.051763
36.15 	0.055477 	4939 	0.054884
36.19 	0.061741 	4940 	0.060911
36.23 	0.054103 	4935 	0.053154
36.27 	0.060914 	4925 	0.059843
36.31 	0.062500 	4928 	0.061668
36.35 	0.055995 	4929 	0.054926
36.39 	0.052632 	4921 	0.052155
36.43 	0.057224 	4928 	0.056749
36.47 	0.059157 	4936 	0.058208
36.51 	0.060409 	4933 	0.059222
36.55 	0.055003 	4927 	0.054527
36.59 	0.053857 	4939 	0.052315
36.63 	0.061651 	4931 	0.060819
36.67 	0.054158 	4930 	0.053564
36.71 	0.053241 	4921 	0.052051
36.75 	0.052994 	4944 	0.052164
36.79 	0.056899 	4921 	0.055828
36.83 	0.054934 	4915 	0.053722
36.87 	0.061893 	4944 	0.061182
36.91 	0.054645 	4941 	0.053696
36.95 	0.054328 	4933 	0.053972
36.99 	0.058561 	4935 	0.056899
37.03 	0.054427 	4924 	0.053238
37.07 	0.054509 	4935 	0.053322
37.11 	0.053901 	4935 	0.052951
37.15 	0.054390 	4909 	0.053435
37.19 	0.057462 	4925 	0.055916
37.23 	0.050427 	4918 	0.050070
37.27 	0.056804 	4894 	0.056086
37.31 	0.057345 	4935 	0.056040
37.35 	0.056298 	4938 	0.055586
37.39 	0.048672 	4931 	0.047939
37.43 	0.050689 	4932 	0.050333
37.47 	0.051126 	4929 	0.050769
37.51 	0.055139 	4933 	0.054783
37.55 	0.054361 	4930 	0.053648
37.59 	0.051475 	4915 	0.050860
37.63 	0.047571 	4919 	0.047213
37.67 	0.054649 	4904 	0.054171
37.71 	0.054372 	4929 	0.054016
37.75 	0.059312 	4940 	0.058600
37.79 	0.048682 	4930 	0.047850
37.83 	0.054472 	4920 	0.053757
37.87 	0.056489 	4939 	0.055778
37.91 	0.049493 	4930 	0.049018
37.95 	0.049380 	4921 	0.048904
37.99 	0.057818 	4912 	0.056983
38.03 	0.055816 	4909 	0.054861
38.07 	0.050723 	4909 	0.049630
38.11 	0.054711 	4935 	0.053880
38.15 	0.051444 	4918 	0.050967
38.19 	0.060446 	4930 	0.059615
38.23 	0.047185 	4938 	0.046355
38.27 	0.052738 	4930 	0.051907
38.31 	0.056424 	4927 	0.055235
38.35 	0.060065 	4928 	0.059114
38.39 	0.049908 	4909 	0.048834
38.43 	0.061025 	4916 	0.059814
38.47 	0.062971 	4907 	0.061777
38.51 	0.059408 	4932 	0.058814
38.55 	0.060373 	4936 	0.059542
38.59 	0.060317 	4924 	0.059484
38.63 	0.058895 	4924 	0.057943
38.67 	0.056715 	4937 	0.055409
38.71 	0.062551 	4924 	0.061123
38.75 	0.054800 	4927 	0.053730
38.79 	0.054114 	4934 	0.052808
38.83 	0.054483 	4919 	0.053649
38.87 	0.048463 	4911 	0.047966
38.91 	0.049154 	4903 	0.048317
38.95 	0.048800 	4918 	0.048205
38.99 	0.049828 	4937 	0.049116
39.03 	0.053709 	4934 	0.052284
39.07 	0.048741 	4924 	0.047789
39.11 	0.047049 	4931 	0.046455
39.15 	0.054730 	4915 	0.053896
39.19 	0.048200 	4917 	0.047843
39.23 	0.049746 	4925 	0.049151
39.27 	0.046436 	4910 	0.045839
39.31 	0.046683 	4884 	0.045963
39.35 	0.050253 	4935 	0.049422
39.39 	0.043619 	4929 	0.043144
39.43 	0.045408 	4933 	0.044696
39.47 	0.049563 	4923 	0.048492
39.51 	0.048741 	4924 	0.048384
39.55 	0.052246 	4919 	0.051413
39.59 	0.046824 	4912 	0.046466
39.63 	0.058310 	4922 	0.057715
39.67 	0.046204 	4913 	0.045727
39.71 	0.052094 	4895 	0.051376
39.75 	0.049107 	4928 	0.047918
39.79 	0.048315 	4926 	0.047720
39.83 	0.046413 	4934 	0.045463
39.87 	0.049340 	4925 	0.048983
39.91 	0.044494 	4922 	0.043542
39.95 	0.044151 	4915 	0.043912
39.99 	0.052109 	4932 	0.051277
40.03 	0.049107 	4928 	0.048037
40.07 	0.050376 	4923 	0.049543
40.11 	0.045159 	4916 	0.044682
40.15 	0.050071 	4913 	0.049594
40.19 	0.050314 	4929 	0.049601
40.23 	0.047040 	4932 	0.046070
40.27 	0.055702 	4937 	0.055465
40.31 	0.046568 	4939 	0.046094
40.35 	0.042082 	4919 	0.042082
40.39 	0.050497 	4931 	0.049546
40.43 	0.051402 	4922 	0.050807
40.47 	0.045750 	4918 	0.044917
40.51 	0.046119 	4922 	0.045148
40.55 	0.048696 	4908 	0.048338
40.59 	0.043549 	4937 	0.042955
40.63 	0.049493 	4930 	0.048780
40.67 	0.046229 	4932 	0.045635
40.71 	0.046837 	4932 	0.046124
40.75 	0.054553 	4931 	0.053464
40.79 	0.046304 	4924 	0.045947
40.83 	0.048498 	4928 	0.048142
40.87 	0.044440 	4928 	0.044083
40.91 	0.044891 	4923 	0.044415
40.95 	0.047222 	4913 	0.046149
40.99 	0.050975 	4924 	0.049785
41.03 	0.048522 	4905 	0.047547
41.07 	0.043002 	4930 	0.042408
41.11 	0.044377 	4935 	0.043783
41.15 	0.043311 	4941 	0.042600
41.19 	0.047465 	4930 	0.046514
41.23 	0.045961 	4939 	0.045467
41.27 	0.044616 	4931 	0.044259
41.31 	0.044395 	4933 	0.043920
41.35 	0.043945 	4938 	0.042759
41.39 	0.044192 	4933 	0.043836
41.43 	0.042808 	4929 	0.042451
41.47 	0.045473 	4926 	0.044878
41.51 	0.044737 	4940 	0.044025
41.55 	0.044782 	4935 	0.044070
41.59 	0.044395 	4933 	0.044157
41.63 	0.045970 	4938 	0.045496
41.67 	0.044130 	4940 	0.043399
41.71 	0.045805 	4934 	0.045330
41.75 	0.041996 	4929 	0.041521
41.79 	0.044701 	4944 	0.044108
41.83 	0.045049 	4928 	0.044692
41.87 	0.043769 	4935 	0.043294
41.91 	0.043760 	4936 	0.043048
41.95 	0.047049 	4931 	0.046574
41.99 	0.042202 	4905 	0.041844
42.03 	0.042519 	4939 	0.041926
42.07 	0.041523 	4937 	0.040792
42.11 	0.046512 	4945 	0.045801
42.15 	0.043135 	4938 	0.042898
42.19 	0.038712 	4908 	0.038354
42.23 	0.041087 	4892 	0.040968
42.27 	0.043086 	4874 	0.042345
42.31 	0.034192 	4855 	0.033830
42.35 	0.039893 	4838 	0.038803
42.39 	0.042673 	4804 	0.041941
42.43 	0.039232 	4792 	0.038621
42.47 	0.045331 	4765 	0.044347
42.51 	0.045330 	4743 	0.044836
42.55 	0.041631 	4708 	0.040885
42.59 	0.038697 	4729 	0.038450
42.63 	0.043746 	4709 	0.043228
42.67 	0.034159 	4684 	0.033408
42.71 	0.044606 	4663 	0.043476
42.75 	0.038986 	4617 	0.038479
42.79 	0.038848 	4582 	0.038464
42.83 	0.044092 	4536 	0.043704
42.87 	0.041787 	4499 	0.041006
42.91 	0.045557 	4456 	0.044899
42.95 	0.036458 	4416 	0.035928
42.99 	0.043101 	4385 	0.042278
43.03 	0.044311 	4333 	0.043906
43.07 	0.041667 	4296 	0.041394
43.11 	0.043008 	4255 	0.042595
43.15 	0.044936 	4206 	0.044518
43.19 	0.042680 	4194 	0.042121
43.23 	0.039961 	4154 	0.039679
43.27 	0.039464 	4105 	0.038893
43.31 	0.040696 	4079 	0.040265
43.35 	0.042411 	4032 	0.041515
43.39 	0.046227 	4002 	0.045934
43.43 	0.039646 	3960 	0.039499
43.47 	0.045907 	3921 	0.045608
43.51 	0.033273 	3877 	0.032820
43.55 	0.045547 	2964 	0.044954
43.59 	0.042383 	1746 	0.042047
43.63 	0.036963 	1001 	0.036378
43.67 	0.055777 	502 	0.055777
43.71 	0.029289 	239 	0.029289
43.75 	0.000000 	16 	0.000000