File: Example_Data/25SC_s1_0034.000.dat
#F C:\frames\spec\25SC_s1_0034.000
#C title =s:34 frm:0 25SC_s1
#C wavelength =0.15406

#S 1  fr_average C:\frames\spec\25SC_s1_0034.000 C:\win32app\speccom\mask.axs chi 0 180 0 360 0.02
#C 2 theta =0.000000 to 180 deg
#C   q   =0.000000 to 81.568 nm^-1
#C  chi  =0.000000 to 360 deg
#C collumns:
#C  1 position (2theta or chi in degrees)
#C  2 average intensity (sum of all counts in the region divided with number of pixels)
#C  3 Number of pixels in region)
#C  4 error (sum of sqrt(intensity) for all pixels divided by number)
#N 4
#L TTh  Int  N_pix  Err
32.99 	0.098361 	61 	0.098361
33.03 	0.068296 	1391 	0.066612
33.07 	0.055610 	2050 	0.054467
33.11 	0.063591 	2579 	0.062455
33.15 	0.066022 	2999 	0.064655
33.19 	0.062837 	3342 	0.061259
33.23 	0.061879 	3523 	0.061048
33.27 	0.060606 	3630 	0.059476
33.31 	0.060929 	3660 	0.059809
33.35 	0.060639 	3694 	0.059370
33.39 	0.050147 	3729 	0.049833
33.43 	0.058229 	3761 	0.056672
33.47 	0.060032 	3798 	0.058335
33.51 	0.058453 	3815 	0.057532
33.55 	0.061931 	3843 	0.061626
33.59 	0.058247 	3880 	0.057794
33.63 	0.056902 	3919 	0.056155
33.67 	0.064492 	3954 	0.063134
33.71 	0.056855 	3975 	0.055529
33.75 	0.059515 	3999 	0.058782
33.79 	0.061123 	4041 	0.060109
33.83 	0.056049 	4050 	0.055182
33.87 	0.048650 	4111 	0.047795
33.91 	0.059050 	4149 	0.058486
33.95 	0.062904 	4181 	0.062203
33.99 	0.050238 	4200 	0.049680
34.03 	0.061263 	4244 	0.059745
34.07 	0.067713 	4268 	0.066615
34.11 	0.059740 	4302 	0.058923
34.15 	0.061418 	4331 	0.060291
34.19 	0.060752 	4362 	0.059678
34.23 	0.057592 	4393 	0.056370
34.27 	0.061963 	4422 	0.060771
34.31 	0.058098 	4458 	0.057704
34.35 	0.061106 	4484 	0.059909
34.39 	0.060195 	4502 	0.059935
34.43 	0.060366 	4539 	0.059204
34.47 	0.054007 	4592 	0.052583
34.51 	0.053191 	4606 	0.052428
34.55 	0.055568 	4643 	0.054937
34.59 	0.062246 	4675 	0.060471
34.63 	0.054565 	4710 	0.053321
34.67 	0.059692 	4741 	0.058951
34.71 	0.052665 	4766 	0.051559
34.75 	0.057820 	4808 	0.055993
34.79 	0.055141 	4824 	0.054291
34.83 	0.056561 	4862 	0.056079
34.87 	0.056081 	4868 	0.054757
34.91 	0.060631 	4882 	0.060151
34.95 	0.054601 	4890 	0.054122
34.99 	0.058607 	4897 	0.057052
35.03 	0.057860 	4943 	0.057386
35.07 	0.059717 	4940 	0.058175
35.11 	0.060036 	4947 	0.059207
35.15 	0.054081 	4937 	0.053488
35.19 	0.052206 	4942 	0.051494
35.23 	0.056421 	4945 	0.055710
35.27 	0.059620 	4948 	0.059383
35.31 	0.057369 	4933 	0.056181
35.35 	0.055241 	4942 	0.054648
35.39 	0.061881 	4945 	0.060677
35.43 	0.058180 	4933 	0.056755
35.47 	0.055972 	4931 	0.054428
35.51 	0.057856 	4926 	0.057262
35.55 	0.059050 	4945 	0.058576
35.59 	0.062285 	4945 	0.061081
35.63 	0.058669 	4943 	0.057602
35.67 	0.061514 	4942 	0.060565
35.71 	0.056309 	4937 	0.054985
35.75 	0.055770 	4931 	0.054225
35.79 	0.056569 	4932 	0.055857
35.83 	0.052568 	4946 	0.051265
35.87 	0.053016 	4923 	0.051946
35.91 	0.056018 	4927 	0.055047
35.95 	0.061623 	4917 	0.060293
35.99 	0.063778 	4939 	0.062592
36.03 	0.052600 	4943 	0.051889
36.07 	0.059324 	4939 	0.058494
36.11 	0.061067 	4929 	0.059760
36.15 	0.055679 	4939 	0.055067
36.19 	0.062348 	4940 	0.060925
36.23 	0.056332 	4935 	0.055264
36.27 	0.065381 	4925 	0.064548
36.31 	0.053977 	4928 	0.053245
36.35 	0.057821 	4929 	0.056633
36.39 	0.057102 	4921 	0.056388
36.43 	0.050528 	4928 	0.049458
36.47 	0.059360 	4936 	0.058154
36.51 	0.059801 	4933 	0.058139
36.55 	0.056830 	4927 	0.055641
36.59 	0.053250 	4939 	0.052538
36.63 	0.061448 	4931 	0.059904
36.67 	0.051521 	4930 	0.050214
36.71 	0.058525 	4921 	0.057810
36.75 	0.058859 	4944 	0.057911
36.79 	0.063808 	4921 	0.062856
36.83 	0.061038 	4915 	0.060561
36.87 	0.065332 	4944 	0.064621
36.91 	0.058895 	4941 	0.057828
36.95 	0.051693 	4933 	0.051099
36.99 	0.054509 	4935 	0.053915
37.03 	0.065191 	4924 	0.063644
37.07 	0.051874 	4935 	0.051400
37.11 	0.052280 	4935 	0.052042
37.15 	0.049501 	4909 	0.049143
37.19 	0.059086 	4925 	0.058016
37.23 	0.053274 	4918 	0.052083
37.27 	0.059256 	4894 	0.058179
37.31 	0.051266 	4935 	0.050198
37.35 	0.054273 	4938 	0.053087
37.39 	0.060840 	4931 	0.059889
37.43 	0.056367 	4932 	0.055891
37.47 	0.054575 	4929 	0.053743
37.51 	0.051287 	4933 	0.050694
37.55 	0.051927 	4930 	0.051095
37.59 	0.055951 	4915 	0.055355
37.63 	0.052856 	4919 	0.051904
37.67 	0.051591 	4904 	0.050993
37.71 	0.053561 	4929 	0.053085
37.75 	0.051619 	4940 	0.051264
37.79 	0.055375 	4930 	0.054662
37.83 	0.055894 	4920 	0.055061
37.87 	0.050618 	4939 	0.050262
37.91 	0.061866 	4930 	0.060797
37.95 	0.061166 	4921 	0.060214
37.99 	0.057410 	4912 	0.056456
38.03 	0.053982 	4909 	0.053267
38.07 	0.057853 	4909 	0.056540
38.11 	0.048632 	4935 	0.047683
38.15 	0.062424 	4918 	0.061709
38.19 	0.056795 	4930 	0.055845
38.23 	0.062171 	4938 	0.061696
38.27 	0.067343 	4930 	0.065779
38.31 	0.073879 	4927 	0.072214
38.35 	0.065747 	4928 	0.064915
38.39 	0.073538 	4909 	0.071510
38.43 	0.075671 	4916 	0.073765
38.47 	0.076421 	4907 	0.075347
38.51 	0.077859 	4932 	0.075840
38.55 	0.088938 	4936 	0.087257
38.59 	0.081438 	4924 	0.078821
38.63 	0.072299 	4924 	0.071228
38.67 	0.078185 	4937 	0.076049
38.71 	0.074939 	4924 	0.073274
38.75 	0.064136 	4927 	0.063304
38.79 	0.068302 	4934 	0.067114
38.83 	0.062818 	4919 	0.062222
38.87 	0.055589 	4911 	0.054377
38.91 	0.056292 	4903 	0.055336
38.95 	0.058967 	4918 	0.058491
38.99 	0.049828 	4937 	0.049472
39.03 	0.051074 	4934 	0.050599
39.07 	0.051381 	4924 	0.050667
39.11 	0.053336 	4931 	0.052742
39.15 	0.051679 	4915 	0.051321
39.19 	0.047793 	4917 	0.047079
39.23 	0.048325 	4925 	0.048087
39.27 	0.041752 	4910 	0.041274
39.31 	0.049550 	4884 	0.049070
39.35 	0.050051 	4935 	0.049338
39.39 	0.046663 	4929 	0.046187
39.43 	0.043989 	4933 	0.043633
39.47 	0.049157 	4923 	0.048681
39.51 	0.047929 	4924 	0.047215
39.55 	0.046148 	4919 	0.045909
39.59 	0.043974 	4912 	0.043855
39.63 	0.047135 	4922 	0.046421
39.67 	0.047832 	4913 	0.047236
39.71 	0.048825 	4895 	0.047848
39.75 	0.047890 	4928 	0.047058
39.79 	0.043849 	4926 	0.043354
39.83 	0.046615 	4934 	0.046022
39.87 	0.039797 	4925 	0.039083
39.91 	0.045916 	4922 	0.045559
39.95 	0.045575 	4915 	0.044621
39.99 	0.045215 	4932 	0.044740
40.03 	0.046875 	4928 	0.046281
40.07 	0.040423 	4923 	0.039590
40.11 	0.042514 	4916 	0.041561
40.15 	0.044372 	4913 	0.044253
40.19 	0.043619 	4929 	0.043144
40.23 	0.045012 	4932 	0.044656
40.27 	0.039295 	4937 	0.038939
40.31 	0.046163 	4939 	0.045096
40.35 	0.047571 	4919 	0.047213
40.39 	0.041371 	4931 	0.040896
40.43 	0.041040 	4922 	0.040564
40.47 	0.042090 	4918 	0.041733
40.51 	0.038805 	4922 	0.038567
40.55 	0.039527 	4908 	0.038931
40.59 	0.036864 	4937 	0.036746
40.63 	0.044219 	4930 	0.043625
40.67 	0.041565 	4932 	0.040734
40.71 	0.038524 	4932 	0.038168
40.75 	0.043602 	4931 	0.042770
40.79 	0.045491 	4924 	0.044659
40.83 	0.037541 	4928 	0.036946
40.87 	0.043831 	4928 	0.043356
40.91 	0.037985 	4923 	0.037628
40.95 	0.041522 	4913 	0.040807
40.99 	0.043461 	4924 	0.042985
41.03 	0.038532 	4905 	0.037696
41.07 	0.044219 	4930 	0.043744
41.11 	0.041540 	4935 	0.041065
41.15 	0.041490 	4941 	0.041134
41.19 	0.047262 	4930 	0.046905
41.23 	0.041709 	4939 	0.040879
41.27 	0.036301 	4931 	0.036063
41.31 	0.036084 	4933 	0.035609
41.35 	0.043135 	4938 	0.042542
41.39 	0.036489 	4933 	0.036251
41.43 	0.043417 	4929 	0.043060
41.47 	0.040601 	4926 	0.039868
41.51 	0.038462 	4940 	0.038224
41.55 	0.038095 	4935 	0.037977
41.59 	0.042165 	4933 	0.041314
41.63 	0.039490 	4938 	0.039371
41.67 	0.042915 	4940 	0.042085
41.71 	0.039724 	4934 	0.039487
41.75 	0.041996 	4929 	0.041283
41.79 	0.036206 	4944 	0.035732
41.83 	0.039367 	4928 	0.039129
41.87 	0.041945 	4935 	0.041708
41.91 	0.038493 	4936 	0.037781
41.95 	0.040965 	4931 	0.040253
41.99 	0.044241 	4905 	0.043763
42.03 	0.041304 	4939 	0.040454
42.07 	0.039498 	4937 	0.039260
42.11 	0.039232 	4945 	0.038995
42.15 	0.035642 	4938 	0.035049
42.19 	0.036879 	4908 	0.036521
42.23 	0.040270 	4892 	0.039671
42.27 	0.036315 	4874 	0.035955
42.31 	0.039341 	4855 	0.038476
42.35 	0.034105 	4838 	0.034105
42.39 	0.036844 	4804 	0.036113
42.43 	0.034850 	4792 	0.034483
42.47 	0.039874 	4765 	0.039382
42.51 	0.042589 	4743 	0.041848
42.55 	0.039720 	4708 	0.038973
42.59 	0.038486 	4729 	0.037495
42.63 	0.038437 	4709 	0.038188
42.67 	0.038215 	4684 	0.037590
42.71 	0.038387 	4663 	0.038010
42.75 	0.038120 	4617 	0.037232
42.79 	0.037538 	4582 	0.037283
42.83 	0.035935 	4536 	0.035547
42.87 	0.036230 	4499 	0.035709
42.91 	0.029623 	4456 	0.029492
42.95 	0.038949 	4416 	0.038286
42.99 	0.038084 	4385 	0.037283
43.03 	0.044080 	4333 	0.043945
43.07 	0.037244 	4296 	0.036699
43.11 	0.038308 	4255 	0.038033
43.15 	0.038992 	4206 	0.038713
43.19 	0.040534 	4194 	0.040255
43.23 	0.038276 	4154 	0.037430
43.27 	0.035079 	4105 	0.034936
43.31 	0.038490 	4079 	0.038203
43.35 	0.037698 	4032 	0.037553
43.39 	0.038981 	4002 	0.038249
43.43 	0.035859 	3960 	0.035711
43.47 	0.039531 	3921 	0.038933
43.51 	0.035079 	3877 	0.034625
43.55 	0.033738 	2964 	0.033541
43.59 	0.033219 	1746 	0.032883
43.63 	0.029970 	1001 	0.029970
43.67 	0.027888 	502 	0.027888
43.71 	0.033473 	239 	0.033473
43.75 	0.187500 	16 	0.187500