File: Example_Data/25SC_s1_0030.004.dat
#F C:\frames\spec\25SC_s1_0030.004
#C title =s:30 frm:4 25SC_s1
#C wavelength =0.15406

#S 1  fr_average C:\frames\spec\25SC_s1_0030.004 C:\win32app\speccom\mask.axs chi 0 180 0 360 0.02
#C 2 theta =0.000000 to 180 deg
#C   q   =0.000000 to 81.568 nm^-1
#C  chi  =0.000000 to 360 deg
#C collumns:
#C  1 position (2theta or chi in degrees)
#C  2 average intensity (sum of all counts in the region divided with number of pixels)
#C  3 Number of pixels in region)
#C  4 error (sum of sqrt(intensity) for all pixels divided by number)
#N 4
#L TTh  Int  N_pix  Err
32.99 	0.081967 	61 	0.072364
33.03 	0.055356 	1391 	0.055356
33.07 	0.055610 	2050 	0.054753
33.11 	0.054672 	2579 	0.053310
33.15 	0.068023 	2999 	0.066655
33.19 	0.064931 	3342 	0.063704
33.23 	0.057621 	3523 	0.056596
33.27 	0.056474 	3630 	0.055344
33.31 	0.058197 	3660 	0.057877
33.35 	0.064429 	3694 	0.063160
33.39 	0.058193 	3729 	0.057721
33.43 	0.059559 	3761 	0.058313
33.47 	0.058452 	3798 	0.057681
33.51 	0.064744 	3815 	0.063363
33.55 	0.061931 	3843 	0.061016
33.59 	0.056443 	3880 	0.055990
33.63 	0.055882 	3919 	0.055134
33.67 	0.058928 	3954 	0.058335
33.71 	0.059623 	3975 	0.058444
33.75 	0.058515 	3999 	0.057172
33.79 	0.067558 	4041 	0.066398
33.83 	0.065185 	4050 	0.063160
33.87 	0.059110 	4111 	0.058255
33.91 	0.057845 	4149 	0.056575
33.95 	0.057163 	4181 	0.056883
33.99 	0.055714 	4200 	0.054599
34.03 	0.054194 	4244 	0.053228
34.07 	0.059747 	4268 	0.058512
34.11 	0.057880 	4302 	0.056632
34.15 	0.064188 	4331 	0.062408
34.19 	0.060752 	4362 	0.059409
34.23 	0.058957 	4393 	0.057869
34.27 	0.063772 	4422 	0.062447
34.31 	0.054957 	4458 	0.054038
34.35 	0.061329 	4484 	0.060284
34.39 	0.067303 	4502 	0.066393
34.43 	0.058603 	4539 	0.057571
34.47 	0.055967 	4592 	0.054691
34.51 	0.053626 	4606 	0.052735
34.55 	0.049537 	4643 	0.048906
34.59 	0.050909 	4675 	0.049656
34.63 	0.057113 	4710 	0.055973
34.67 	0.061169 	4741 	0.060057
34.71 	0.057700 	4766 	0.056348
34.75 	0.064892 	4808 	0.063288
34.79 	0.057836 	4824 	0.056864
34.83 	0.057589 	4862 	0.056264
34.87 	0.057313 	4868 	0.056832
34.91 	0.060631 	4882 	0.059671
34.95 	0.057669 	4890 	0.056710
34.99 	0.060649 	4897 	0.059294
35.03 	0.057050 	4943 	0.056102
35.07 	0.064372 	4940 	0.062950
35.11 	0.052557 	4947 	0.051847
35.15 	0.059955 	4937 	0.059006
35.19 	0.051194 	4942 	0.050108
35.23 	0.060465 	4945 	0.059399
35.27 	0.056791 	4948 	0.055449
35.31 	0.064261 	4933 	0.062955
35.35 	0.055645 	4942 	0.054460
35.39 	0.063094 	4945 	0.061909
35.43 	0.050476 	4933 	0.049883
35.47 	0.058000 	4931 	0.057050
35.51 	0.054811 	4926 	0.054217
35.55 	0.061072 	4945 	0.059631
35.59 	0.051972 	4945 	0.050649
35.63 	0.055432 	4943 	0.054128
35.67 	0.058478 	4942 	0.057649
35.71 	0.054892 	4937 	0.053942
35.75 	0.056784 	4931 	0.055814
35.79 	0.055961 	4932 	0.054892
35.83 	0.059846 	4946 	0.059017
35.87 	0.052813 	4923 	0.051742
35.91 	0.061904 	4927 	0.060814
35.95 	0.057555 	4917 	0.057079
35.99 	0.059121 	4939 	0.058054
36.03 	0.059478 	4943 	0.058530
36.07 	0.054869 	4939 	0.053802
36.11 	0.052140 	4929 	0.051308
36.15 	0.053857 	4939 	0.053027
36.19 	0.058502 	4940 	0.057415
36.23 	0.053090 	4935 	0.051903
36.27 	0.060305 	4925 	0.059591
36.31 	0.057224 	4928 	0.056749
36.35 	0.053155 	4929 	0.052442
36.39 	0.059338 	4921 	0.058247
36.43 	0.053774 	4928 	0.052823
36.47 	0.056726 	4936 	0.056014
36.51 	0.051085 	4933 	0.050253
36.55 	0.054800 	4927 	0.053730
36.59 	0.054667 	4939 	0.053580
36.63 	0.059014 	4931 	0.057094
36.67 	0.055781 	4930 	0.054712
36.71 	0.057305 	4921 	0.056472
36.75 	0.061286 	4944 	0.060063
36.79 	0.053851 	4921 	0.052422
36.83 	0.059003 	4915 	0.057811
36.87 	0.057241 	4944 	0.056056
36.91 	0.059097 	4941 	0.057912
36.95 	0.053314 	4933 	0.052127
36.99 	0.051672 	4935 	0.050603
37.03 	0.048538 	4924 	0.047824
37.07 	0.063222 	4935 	0.062154
37.11 	0.050456 	4935 	0.049862
37.15 	0.055408 	4909 	0.054812
37.19 	0.059898 	4925 	0.059304
37.23 	0.061000 	4918 	0.059928
37.27 	0.056191 	4894 	0.055832
37.31 	0.052888 	4935 	0.052294
37.35 	0.052855 	4938 	0.052025
37.39 	0.056986 	4931 	0.056392
37.43 	0.053528 	4932 	0.053053
37.47 	0.051329 	4929 	0.050497
37.51 	0.058990 	4933 	0.057922
37.55 	0.047262 	4930 	0.045955
37.59 	0.056968 	4915 	0.056253
37.63 	0.056516 	4919 	0.055206
37.67 	0.056077 	4904 	0.055002
37.71 	0.054372 	4929 	0.052808
37.75 	0.055870 	4940 	0.054922
37.79 	0.056998 	4930 	0.056166
37.83 	0.053659 	4920 	0.052944
37.87 	0.056894 	4939 	0.056182
37.91 	0.054970 	4930 	0.054138
37.95 	0.052225 	4921 	0.051273
37.99 	0.052728 	4912 	0.051893
38.03 	0.060705 	4909 	0.059373
38.07 	0.057038 	4909 	0.056203
38.11 	0.055319 	4935 	0.054370
38.15 	0.057137 	4918 	0.055946
38.19 	0.059026 	4930 	0.057819
38.23 	0.059336 	4938 	0.058031
38.27 	0.058621 	4930 	0.057551
38.31 	0.066166 	4927 	0.064977
38.35 	0.066761 	4928 	0.066167
38.39 	0.068649 	4909 	0.067217
38.43 	0.067128 	4916 	0.065936
38.47 	0.066843 	4907 	0.066127
38.51 	0.066504 	4932 	0.065673
38.55 	0.061183 	4936 	0.060471
38.59 	0.068034 	4924 	0.066844
38.63 	0.059708 	4924 	0.058875
38.67 	0.058943 	4937 	0.057262
38.71 	0.059504 	4924 	0.058315
38.75 	0.060483 	4927 	0.059532
38.79 	0.058573 	4934 	0.057980
38.83 	0.050213 	4919 	0.049261
38.87 	0.049888 	4911 	0.049033
38.91 	0.048950 	4903 	0.047755
38.95 	0.061814 	4918 	0.060504
38.99 	0.052664 	4937 	0.052426
39.03 	0.055938 	4934 	0.055107
39.07 	0.053615 	4924 	0.053258
39.11 	0.056175 	4931 	0.054868
39.15 	0.058596 	4915 	0.057404
39.19 	0.058166 	4917 	0.057093
39.23 	0.049543 	4925 	0.049067
39.27 	0.049287 	4910 	0.048313
39.31 	0.057944 	4884 	0.057465
39.35 	0.051874 	4935 	0.050549
39.39 	0.057618 	4929 	0.056549
39.43 	0.047436 	4933 	0.046604
39.47 	0.058907 	4923 	0.058193
39.51 	0.053615 	4924 	0.052901
39.55 	0.050417 	4919 	0.049821
39.59 	0.052524 	4912 	0.051213
39.63 	0.052011 	4922 	0.051773
39.67 	0.059027 	4913 	0.058431
39.71 	0.052911 	4895 	0.051714
39.75 	0.058847 	4928 	0.058015
39.79 	0.057044 	4926 	0.055717
39.83 	0.054520 	4934 	0.053926
39.87 	0.054822 	4925 	0.054109
39.91 	0.052621 	4922 	0.051907
39.95 	0.057172 	4915 	0.056099
39.99 	0.053528 	4932 	0.052558
40.03 	0.055195 	4928 	0.054076
40.07 	0.053626 	4923 	0.052674
40.11 	0.052482 	4916 	0.052005
40.15 	0.055363 	4913 	0.054529
40.19 	0.054778 	4929 	0.054184
40.23 	0.055556 	4932 	0.054724
40.27 	0.051853 	4937 	0.050647
40.31 	0.054869 	4939 	0.053802
40.35 	0.051230 	4919 	0.050634
40.39 	0.053539 	4931 	0.052707
40.43 	0.057294 	4922 	0.056104
40.47 	0.050020 	4918 	0.049425
40.51 	0.047745 	4922 	0.047269
40.55 	0.050937 	4908 	0.049982
40.59 	0.048207 	4937 	0.048089
40.63 	0.053550 	4930 	0.053174
40.67 	0.050689 	4932 	0.049739
40.71 	0.050284 	4932 	0.049690
40.75 	0.052728 	4931 	0.052134
40.79 	0.050772 	4924 	0.050177
40.83 	0.049716 	4928 	0.049478
40.87 	0.053166 	4928 	0.052215
40.91 	0.060126 	4923 	0.059174
40.95 	0.049868 	4913 	0.049272
40.99 	0.051178 	4924 	0.050821
41.03 	0.048930 	4905 	0.047716
41.07 	0.048073 	4930 	0.047598
41.11 	0.053698 	4935 	0.052867
41.15 	0.052216 	4941 	0.051268
41.19 	0.051318 	4930 	0.050348
41.23 	0.056287 	4939 	0.055219
41.27 	0.054147 	4931 	0.053434
41.31 	0.049666 	4933 	0.049072
41.35 	0.050020 	4938 	0.049664
41.39 	0.050071 	4933 	0.049358
41.43 	0.051735 	4929 	0.051259
41.47 	0.047909 	4926 	0.047552
41.51 	0.047571 	4940 	0.046978
41.55 	0.047822 	4935 	0.047327
41.59 	0.049868 	4933 	0.049393
41.63 	0.049210 	4938 	0.048854
41.67 	0.046154 	4940 	0.045798
41.71 	0.048237 	4934 	0.047999
41.75 	0.049503 	4929 	0.048077
41.79 	0.047128 	4944 	0.046654
41.83 	0.052151 	4928 	0.050705
41.87 	0.050861 	4935 	0.050030
41.91 	0.049230 	4936 	0.048617
41.95 	0.048063 	4931 	0.046994
41.99 	0.040367 	4905 	0.040009
42.03 	0.042924 	4939 	0.042093
42.07 	0.051448 	4937 	0.050855
42.11 	0.049141 	4945 	0.048193
42.15 	0.051843 	4938 	0.050756
42.19 	0.053382 	4908 	0.052308
42.23 	0.045993 	4892 	0.045514
42.27 	0.046163 	4874 	0.045923
42.31 	0.046550 	4855 	0.045947
42.35 	0.054981 	4838 	0.054255
42.39 	0.044130 	4804 	0.043764
42.43 	0.051544 	4792 	0.050811
42.47 	0.049108 	4765 	0.049108
42.51 	0.044065 	4743 	0.043200
42.55 	0.049915 	4708 	0.049168
42.59 	0.043561 	4729 	0.042818
42.63 	0.045233 	4709 	0.044859
42.67 	0.044406 	4684 	0.044156
42.71 	0.043320 	4663 	0.043194
42.75 	0.047217 	4617 	0.046963
42.79 	0.044740 	4582 	0.043696
42.83 	0.043210 	4536 	0.042822
42.87 	0.049567 	4499 	0.049306
42.91 	0.045557 	4456 	0.044899
42.95 	0.041214 	4416 	0.040418
42.99 	0.046522 	4385 	0.046121
43.03 	0.040388 	4333 	0.039982
43.07 	0.047719 	4296 	0.046764
43.11 	0.050999 	4255 	0.050310
43.15 	0.048027 	4206 	0.047609
43.19 	0.045541 	4194 	0.044703
43.23 	0.045980 	4154 	0.045557
43.27 	0.049695 	4105 	0.049125
43.31 	0.050748 	4079 	0.050317
43.35 	0.047371 	4032 	0.046790
43.39 	0.044728 	4002 	0.043264
43.43 	0.046212 	3960 	0.045768
43.47 	0.048457 	3921 	0.047561
43.51 	0.044364 	3877 	0.043911
43.55 	0.046559 	2964 	0.046163
43.59 	0.049255 	1746 	0.047913
43.63 	0.042957 	1001 	0.042957
43.67 	0.031873 	502 	0.030706
43.71 	0.066946 	239 	0.064495
43.75 	0.000000 	16 	0.000000