File: Example_Data/25SC_s1_0001.000.dat
#F C:\frames\spec\25SC_s1_0001.000
#C title =s:1 frm:0 25SC_s1
#C wavelength =0.15406

#S 1  fr_average C:\frames\spec\25SC_s1_0001.000 C:\win32app\speccom\mask.axs chi 0 180 0 360 0.02
#C 2 theta =0.000000 to 180 deg
#C   q   =0.000000 to 81.568 nm^-1
#C  chi  =0.000000 to 360 deg
#C collumns:
#C  1 position (2theta or chi in degrees)
#C  2 average intensity (sum of all counts in the region divided with number of pixels)
#C  3 Number of pixels in region)
#C  4 error (sum of sqrt(intensity) for all pixels divided by number)
#N 4
#L TTh  Int  N_pix  Err
32.99 	0.032787 	61 	0.032787
33.03 	0.023005 	1391 	0.023005
33.07 	0.038049 	2050 	0.038049
33.11 	0.031795 	2579 	0.031795
33.15 	0.035012 	2999 	0.035012
33.19 	0.039497 	3342 	0.038796
33.23 	0.035765 	3523 	0.035432
33.27 	0.033884 	3630 	0.033884
33.31 	0.039617 	3660 	0.038977
33.35 	0.036004 	3694 	0.035529
33.39 	0.041030 	3729 	0.040558
33.43 	0.032970 	3761 	0.032658
33.47 	0.035018 	3798 	0.034401
33.51 	0.034600 	3815 	0.033833
33.55 	0.030185 	3843 	0.029880
33.59 	0.031701 	3880 	0.031248
33.63 	0.030620 	3919 	0.030321
33.67 	0.032625 	3954 	0.032329
33.71 	0.038491 	3975 	0.038343
33.75 	0.034759 	3999 	0.034759
33.79 	0.036130 	4041 	0.035695
33.83 	0.031358 	4050 	0.031213
33.87 	0.027730 	4111 	0.027588
33.91 	0.035189 	4149 	0.034766
33.95 	0.032528 	4181 	0.032108
33.99 	0.030238 	4200 	0.029959
34.03 	0.032752 	4244 	0.032614
34.07 	0.035614 	4268 	0.035042
34.11 	0.039284 	4302 	0.039012
34.15 	0.037405 	4331 	0.036728
34.19 	0.036222 	4362 	0.035819
34.23 	0.037332 	4393 	0.036932
34.27 	0.029625 	4422 	0.029492
34.31 	0.032301 	4458 	0.032301
34.35 	0.030999 	4484 	0.030868
34.39 	0.031986 	4502 	0.031465
34.43 	0.033488 	4539 	0.033100
34.47 	0.033537 	4592 	0.033281
34.51 	0.034303 	4606 	0.033794
34.55 	0.033384 	4643 	0.033257
34.59 	0.038289 	4675 	0.037662
34.63 	0.033121 	4710 	0.032479
34.67 	0.037756 	4741 	0.036767
34.71 	0.035669 	4766 	0.035178
34.75 	0.035150 	4808 	0.035028
34.79 	0.031924 	4824 	0.031559
34.83 	0.036610 	4862 	0.036008
34.87 	0.034306 	4868 	0.033704
34.91 	0.033183 	4882 	0.032943
34.95 	0.032311 	4890 	0.031832
34.99 	0.027976 	4897 	0.027737
35.03 	0.036415 	4943 	0.036060
35.07 	0.035628 	4940 	0.035035
35.11 	0.035981 	4947 	0.035745
35.15 	0.034029 	4937 	0.033791
35.19 	0.031971 	4942 	0.031852
35.23 	0.035592 	4945 	0.035355
35.27 	0.033751 	4948 	0.033633
35.31 	0.036894 	4933 	0.036063
35.35 	0.031971 	4942 	0.031852
35.39 	0.033165 	4945 	0.032691
35.43 	0.033448 	4933 	0.032854
35.47 	0.029609 	4931 	0.029252
35.51 	0.031669 	4926 	0.031431
35.55 	0.032558 	4945 	0.032440
35.59 	0.031345 	4945 	0.030989
35.63 	0.032774 	4943 	0.032418
35.67 	0.033792 	4942 	0.033199
35.71 	0.033624 	4937 	0.033505
35.75 	0.039546 	4931 	0.039189
35.79 	0.031225 	4932 	0.030987
35.83 	0.035989 	4946 	0.035278
35.87 	0.034329 	4923 	0.034210
35.91 	0.038360 	4927 	0.038241
35.95 	0.031320 	4917 	0.031201
35.99 	0.031180 	4939 	0.031062
36.03 	0.035404 	4943 	0.035167
36.07 	0.032395 	4939 	0.032158
36.11 	0.027998 	4929 	0.027522
36.15 	0.028548 	4939 	0.028311
36.19 	0.036032 	4940 	0.035321
36.23 	0.037893 	4935 	0.037537
36.27 	0.033909 	4925 	0.033790
36.31 	0.034700 	4928 	0.034581
36.35 	0.036316 	4929 	0.035959
36.39 	0.031701 	4921 	0.030510
36.43 	0.035106 	4928 	0.034987
36.47 	0.032618 	4936 	0.032380
36.51 	0.033245 	4933 	0.033127
36.55 	0.030647 	4927 	0.030529
36.59 	0.033610 	4939 	0.033373
36.63 	0.032651 	4931 	0.032175
36.67 	0.033469 	4930 	0.033112
36.71 	0.031904 	4921 	0.031289
36.75 	0.037621 	4944 	0.036910
36.79 	0.036781 	4921 	0.036543
36.83 	0.029705 	4915 	0.029467
36.87 	0.037217 	4944 	0.036624
36.91 	0.034406 	4941 	0.034050
36.95 	0.040949 	4933 	0.040236
36.99 	0.033232 	4935 	0.032995
37.03 	0.031682 	4924 	0.031206
37.07 	0.032624 	4935 	0.032031
37.11 	0.032827 	4935 	0.032471
37.15 	0.037482 	4909 	0.037005
37.19 	0.030254 	4925 	0.030135
37.23 	0.034770 	4918 	0.034651
37.27 	0.033715 	4894 	0.033116
37.31 	0.036069 	4935 	0.035950
37.35 	0.035237 	4938 	0.034881
37.39 	0.032448 	4931 	0.032329
37.43 	0.033658 	4932 	0.033539
37.47 	0.032258 	4929 	0.031783
37.51 	0.032029 	4933 	0.031910
37.55 	0.033469 	4930 	0.032855
37.59 	0.029908 	4915 	0.029551
37.63 	0.033137 	4919 	0.032780
37.67 	0.032423 	4904 	0.032184
37.71 	0.030432 	4929 	0.030194
37.75 	0.032186 	4940 	0.031949
37.79 	0.035700 	4930 	0.035343
37.83 	0.029065 	4920 	0.029065
37.87 	0.030168 	4939 	0.029812
37.91 	0.030629 	4930 	0.030272
37.95 	0.032514 	4921 	0.032276
37.99 	0.030334 	4912 	0.029857
38.03 	0.029334 	4909 	0.029215
38.07 	0.029130 	4909 	0.028772
38.11 	0.033840 	4935 	0.033484
38.15 	0.033957 	4918 	0.033600
38.19 	0.033874 	4930 	0.033518
38.23 	0.035439 	4938 	0.035321
38.27 	0.037931 	4930 	0.037456
38.31 	0.035924 	4927 	0.035806
38.35 	0.047281 	4928 	0.046924
38.39 	0.041353 	4909 	0.040756
38.43 	0.042718 	4916 	0.042241
38.47 	0.054208 	4907 	0.052776
38.51 	0.046837 	4932 	0.046362
38.55 	0.049635 	4936 	0.048686
38.59 	0.044273 	4924 	0.043559
38.63 	0.042648 	4924 	0.041815
38.67 	0.039498 	4937 	0.039498
38.71 	0.042242 	4924 	0.041528
38.75 	0.034301 	4927 	0.033825
38.79 	0.034252 	4934 	0.033777
38.83 	0.032324 	4919 	0.032085
38.87 	0.033802 	4911 	0.033802
38.91 	0.029574 	4903 	0.029215
38.95 	0.025824 	4918 	0.025585
38.99 	0.026737 	4937 	0.026618
39.03 	0.028780 	4934 	0.028661
39.07 	0.028229 	4924 	0.027991
39.11 	0.030420 	4931 	0.029945
39.15 	0.024212 	4915 	0.024212
39.19 	0.025422 	4917 	0.025303
39.23 	0.026802 	4925 	0.026683
39.27 	0.026273 	4910 	0.025915
39.31 	0.025594 	4884 	0.025354
39.35 	0.024721 	4935 	0.024603
39.39 	0.026577 	4929 	0.026459
39.43 	0.031218 	4933 	0.030981
39.47 	0.026610 	4923 	0.026372
39.51 	0.027011 	4924 	0.026892
39.55 	0.022972 	4919 	0.022853
39.59 	0.025651 	4912 	0.025294
39.63 	0.025803 	4922 	0.025445
39.67 	0.023407 	4913 	0.023407
39.71 	0.023493 	4895 	0.023374
39.75 	0.026177 	4928 	0.025939
39.79 	0.028015 	4926 	0.028015
39.83 	0.027361 	4934 	0.027242
39.87 	0.021117 	4925 	0.021117
39.91 	0.023568 	4922 	0.023092
39.95 	0.030112 	4915 	0.030112
39.99 	0.027778 	4932 	0.027303
40.03 	0.022930 	4928 	0.022811
40.07 	0.026407 	4923 	0.026288
40.11 	0.025427 	4916 	0.025189
40.15 	0.020151 	4913 	0.020031
40.19 	0.021302 	4929 	0.021184
40.23 	0.024331 	4932 	0.024212
40.27 	0.023901 	4937 	0.023427
40.31 	0.023689 	4939 	0.023333
40.35 	0.024802 	4919 	0.024802
40.39 	0.025755 	4931 	0.025637
40.43 	0.025599 	4922 	0.025123
40.47 	0.023790 	4918 	0.023671
40.51 	0.026209 	4922 	0.026209
40.55 	0.026080 	4908 	0.025841
40.59 	0.025319 	4937 	0.024844
40.63 	0.027383 	4930 	0.026908
40.67 	0.022912 	4932 	0.022674
40.71 	0.022101 	4932 	0.021982
40.75 	0.024133 	4931 	0.024133
40.79 	0.025995 	4924 	0.025995
40.83 	0.024148 	4928 	0.023791
40.87 	0.021104 	4928 	0.020985
40.91 	0.023969 	4923 	0.023731
40.95 	0.021779 	4913 	0.021779
40.99 	0.024980 	4924 	0.024980
41.03 	0.022630 	4905 	0.022272
41.07 	0.026166 	4930 	0.026166
41.11 	0.021682 	4935 	0.021682
41.15 	0.025096 	4941 	0.025096
41.19 	0.024949 	4930 	0.024712
41.23 	0.026726 	4939 	0.026726
41.27 	0.024539 	4931 	0.024539
41.31 	0.026353 	4933 	0.026116
41.35 	0.025314 	4938 	0.025077
41.39 	0.023718 	4933 	0.023718
41.43 	0.023331 	4929 	0.023212
41.47 	0.019285 	4926 	0.019285
41.51 	0.022267 	4940 	0.022267
41.55 	0.023506 	4935 	0.023387
41.59 	0.026759 	4933 	0.026284
41.63 	0.022276 	4938 	0.022158
41.67 	0.026923 	4940 	0.026686
41.71 	0.022902 	4934 	0.022784
41.75 	0.020897 	4929 	0.020659
41.79 	0.026092 	4944 	0.025855
41.83 	0.023742 	4928 	0.023266
41.87 	0.027153 	4935 	0.026797
41.91 	0.023703 	4936 	0.023703
41.95 	0.024539 	4931 	0.024420
41.99 	0.020387 	4905 	0.020268
42.03 	0.022069 	4939 	0.021832
42.07 	0.024104 	4937 	0.024104
42.11 	0.019414 	4945 	0.019295
42.15 	0.020859 	4938 	0.020621
42.19 	0.023431 	4908 	0.023312
42.23 	0.022895 	4892 	0.022655
42.27 	0.024210 	4874 	0.023850
42.31 	0.023275 	4855 	0.023154
42.35 	0.022323 	4838 	0.022323
42.39 	0.019983 	4804 	0.019739
42.43 	0.023372 	4792 	0.023128
42.47 	0.023085 	4765 	0.022839
42.51 	0.023825 	4743 	0.023701
42.55 	0.022090 	4708 	0.021717
42.59 	0.022415 	4729 	0.022291
42.63 	0.023360 	4709 	0.022986
42.67 	0.016652 	4684 	0.016652
42.71 	0.022518 	4663 	0.021963
42.75 	0.023175 	4617 	0.023175
42.79 	0.018333 	4582 	0.018333
42.83 	0.020503 	4536 	0.020503
42.87 	0.023783 	4499 	0.023653
42.91 	0.025359 	4456 	0.024702
42.95 	0.025136 	4416 	0.024738
42.99 	0.020981 	4385 	0.020981
43.03 	0.021694 	4333 	0.021559
43.07 	0.019553 	4296 	0.019553
43.11 	0.021857 	4255 	0.021719
43.15 	0.021160 	4206 	0.021160
43.19 	0.023367 	4194 	0.023227
43.23 	0.021425 	4154 	0.021143
43.27 	0.021681 	4105 	0.021253
43.31 	0.021084 	4079 	0.020940
43.35 	0.024802 	4032 	0.024511
43.39 	0.021239 	4002 	0.021093
43.43 	0.023990 	3960 	0.023694
43.47 	0.019638 	3921 	0.019488
43.51 	0.014444 	3877 	0.014444
43.55 	0.022605 	2964 	0.022407
43.59 	0.021764 	1746 	0.021764
43.63 	0.018981 	1001 	0.018981
43.67 	0.017928 	502 	0.017928
43.71 	0.025105 	239 	0.025105
43.75 	0.000000 	16 	0.000000