File: Example_Data/25SC_s1_0031.004.dat
#F C:\frames\spec\25SC_s1_0031.004
#C title =s:31 frm:4 25SC_s1
#C wavelength =0.15406

#S 1  fr_average C:\frames\spec\25SC_s1_0031.004 C:\win32app\speccom\mask.axs chi 0 180 0 360 0.02
#C 2 theta =0.000000 to 180 deg
#C   q   =0.000000 to 81.568 nm^-1
#C  chi  =0.000000 to 360 deg
#C collumns:
#C  1 position (2theta or chi in degrees)
#C  2 average intensity (sum of all counts in the region divided with number of pixels)
#C  3 Number of pixels in region)
#C  4 error (sum of sqrt(intensity) for all pixels divided by number)
#N 4
#L TTh  Int  N_pix  Err
32.99 	0.049180 	61 	0.049180
33.03 	0.050324 	1391 	0.048991
33.07 	0.063902 	2050 	0.063331
33.11 	0.060876 	2579 	0.059968
33.15 	0.054018 	2999 	0.053237
33.19 	0.059246 	3342 	0.058194
33.23 	0.051661 	3523 	0.050663
33.27 	0.052342 	3630 	0.051535
33.31 	0.056284 	3660 	0.055644
33.35 	0.064970 	3694 	0.064177
33.39 	0.060606 	3729 	0.059324
33.43 	0.055570 	3761 	0.055077
33.47 	0.055819 	3798 	0.054405
33.51 	0.059502 	3815 	0.059502
33.55 	0.057507 	3843 	0.057050
33.59 	0.062371 	3880 	0.060861
33.63 	0.060985 	3919 	0.059939
33.67 	0.065250 	3954 	0.064213
33.71 	0.052327 	3975 	0.051738
33.75 	0.060015 	3999 	0.058966
33.79 	0.059391 	4041 	0.058521
33.83 	0.059259 	4050 	0.058391
33.87 	0.055704 	4111 	0.054849
33.91 	0.057845 	4149 	0.056834
33.95 	0.057642 	4181 	0.057081
33.99 	0.062619 	4200 	0.061201
34.03 	0.062912 	4244 	0.061670
34.07 	0.060450 	4268 	0.059467
34.11 	0.057648 	4302 	0.056558
34.15 	0.061418 	4331 	0.060336
34.19 	0.062357 	4362 	0.061551
34.23 	0.056453 	4393 	0.055387
34.27 	0.062867 	4422 	0.062073
34.31 	0.054284 	4458 	0.053102
34.35 	0.053524 	4484 	0.052609
34.39 	0.056197 	4502 	0.055417
34.43 	0.059925 	4539 	0.058505
34.47 	0.056620 	4592 	0.055089
34.51 	0.061224 	4606 	0.059148
34.55 	0.060737 	4643 	0.059727
34.59 	0.056471 	4675 	0.055176
34.63 	0.058174 	4710 	0.057677
34.67 	0.063489 	4741 	0.062624
34.71 	0.055602 	4766 	0.054742
34.75 	0.060108 	4808 	0.059499
34.79 	0.056385 	4824 	0.055413
34.83 	0.057589 	4862 	0.056264
34.87 	0.057724 	4868 	0.057243
34.91 	0.062270 	4882 	0.060470
34.95 	0.052556 	4890 	0.051598
34.99 	0.056157 	4897 	0.054721
35.03 	0.053004 	4943 	0.052412
35.07 	0.052024 	4940 	0.050957
35.11 	0.058217 	4947 	0.057388
35.15 	0.052461 	4937 	0.051630
35.19 	0.060097 	4942 	0.058793
35.23 	0.065723 	4945 	0.064420
35.27 	0.059620 	4948 	0.059028
35.31 	0.064667 	4933 	0.063717
35.35 	0.059490 	4942 	0.058186
35.39 	0.061678 	4945 	0.060593
35.43 	0.057166 	4933 	0.056335
35.47 	0.058203 	4931 	0.057015
35.51 	0.060495 	4926 	0.060020
35.55 	0.049343 	4945 	0.048632
35.59 	0.065925 	4945 	0.064741
35.63 	0.056848 	4943 	0.056256
35.67 	0.062525 	4942 	0.060728
35.71 	0.058740 	4937 	0.058384
35.75 	0.054958 	4931 	0.054602
35.79 	0.058800 	4932 	0.057968
35.83 	0.065912 	4946 	0.064727
35.87 	0.057282 	4923 	0.056211
35.91 	0.058859 	4927 	0.058027
35.95 	0.060199 	4917 	0.059346
35.99 	0.057097 	4939 	0.056385
36.03 	0.062715 	4943 	0.061056
36.07 	0.059729 	4939 	0.058424
36.11 	0.050314 	4929 	0.049087
36.15 	0.059324 	4939 	0.058375
36.19 	0.057085 	4940 	0.056136
36.23 	0.059980 	4935 	0.058555
36.27 	0.058071 	4925 	0.057120
36.31 	0.054180 	4928 	0.053229
36.35 	0.053155 	4929 	0.052561
36.39 	0.061776 	4921 	0.060566
36.43 	0.059050 	4928 	0.058456
36.47 	0.058347 	4936 	0.057279
36.51 	0.053112 	4933 	0.052043
36.55 	0.053176 	4927 	0.052463
36.59 	0.054060 	4939 	0.053467
36.63 	0.050497 	4931 	0.050022
36.67 	0.053955 	4930 	0.052866
36.71 	0.055273 	4921 	0.054420
36.75 	0.055218 	4944 	0.054745
36.79 	0.055477 	4921 	0.054524
36.83 	0.055748 	4915 	0.054913
36.87 	0.052387 	4944 	0.051676
36.91 	0.055859 	4941 	0.054911
36.95 	0.051287 	4933 	0.050694
36.99 	0.053090 	4935 	0.051310
37.03 	0.058692 	4924 	0.057126
37.07 	0.060385 	4935 	0.058605
37.11 	0.056332 	4935 	0.055739
37.15 	0.061723 	4909 	0.061007
37.19 	0.050761 	4925 	0.050286
37.23 	0.059577 	4918 	0.058743
37.27 	0.056600 	4894 	0.056361
37.31 	0.052888 	4935 	0.052413
37.35 	0.053058 	4938 	0.052228
37.39 	0.049888 	4931 	0.049176
37.43 	0.050284 	4932 	0.049809
37.47 	0.051532 	4929 	0.050819
37.51 	0.054936 	4933 	0.054342
37.55 	0.050710 	4930 	0.050235
37.59 	0.049440 	4915 	0.048845
37.63 	0.059972 	4919 	0.058781
37.67 	0.048940 	4904 	0.048342
37.71 	0.054981 	4929 	0.054268
37.75 	0.050607 	4940 	0.049896
37.79 	0.054361 	4930 	0.053648
37.83 	0.045935 	4920 	0.045459
37.87 	0.051427 	4939 	0.050953
37.91 	0.055375 	4930 	0.054544
37.95 	0.053851 	4921 	0.053256
37.99 	0.056393 	4912 	0.055319
38.03 	0.052353 	4909 	0.051637
38.07 	0.059075 	4909 	0.057882
38.11 	0.060182 	4935 	0.058877
38.15 	0.061204 	4918 	0.059993
38.19 	0.065112 	4930 	0.064042
38.23 	0.064399 	4938 	0.062975
38.27 	0.056795 	4930 	0.056082
38.31 	0.063122 	4927 	0.061438
38.35 	0.061688 	4928 	0.060381
38.39 	0.078427 	4909 	0.076876
38.43 	0.058381 	4916 	0.057428
38.47 	0.063786 	4907 	0.062354
38.51 	0.060827 	4932 	0.059521
38.55 	0.063209 	4936 	0.061884
38.59 	0.054630 	4924 	0.053798
38.63 	0.058692 	4924 	0.057740
38.67 	0.060361 	4937 	0.059530
38.71 	0.053818 	4924 	0.053223
38.75 	0.059874 	4927 	0.058923
38.79 	0.060600 	4934 	0.059294
38.83 	0.056516 	4919 	0.055563
38.87 	0.053553 	4911 	0.053434
38.91 	0.059351 	4903 	0.058396
38.95 	0.054900 	4918 	0.053947
38.99 	0.052664 	4937 	0.052070
39.03 	0.054925 	4934 	0.053975
39.07 	0.053615 	4924 	0.053258
39.11 	0.050700 	4931 	0.049749
39.15 	0.052696 	4915 	0.051981
39.19 	0.050641 	4917 	0.050522
39.23 	0.052589 	4925 	0.051975
39.27 	0.055193 	4910 	0.054000
39.31 	0.051802 	4884 	0.050962
39.35 	0.054306 	4935 	0.053594
39.39 	0.053763 	4929 	0.053288
39.43 	0.059801 	4933 	0.058970
39.47 	0.055657 	4923 	0.054824
39.51 	0.055240 	4924 	0.054407
39.55 	0.051840 	4919 	0.051006
39.59 	0.055171 	4912 	0.054694
39.63 	0.058513 	4922 	0.056847
39.67 	0.054346 	4913 	0.053134
39.71 	0.053728 	4895 	0.052991
39.75 	0.053166 	4928 	0.052334
39.79 	0.050345 	4926 	0.049493
39.83 	0.054520 	4934 	0.053689
39.87 	0.050558 	4925 	0.049845
39.91 	0.057294 	4922 	0.056223
39.95 	0.050254 	4915 	0.048824
39.99 	0.049676 	4932 	0.049200
40.03 	0.051542 	4928 	0.051423
40.07 	0.056470 	4923 	0.055141
40.11 	0.056347 	4916 	0.055989
40.15 	0.050275 	4913 	0.049679
40.19 	0.054778 	4929 	0.053589
40.23 	0.055556 	4932 	0.054348
40.27 	0.048005 	4937 	0.047768
40.31 	0.049808 	4939 	0.049452
40.35 	0.057939 	4919 	0.057105
40.39 	0.055364 	4931 	0.054532
40.43 	0.056684 	4922 	0.055494
40.47 	0.049410 	4918 	0.049172
40.51 	0.051199 	4922 	0.050723
40.55 	0.058272 	4908 	0.056482
40.59 	0.056309 	4937 	0.055954
40.63 	0.050101 	4930 	0.048913
40.67 	0.051095 	4932 	0.050145
40.71 	0.055758 	4932 	0.054808
40.75 	0.054756 	4931 	0.053686
40.79 	0.047319 	4924 	0.046962
40.83 	0.048701 	4928 	0.047988
40.87 	0.056209 	4928 	0.055258
40.91 	0.046516 	4923 	0.045802
40.95 	0.049664 	4913 	0.049306
40.99 	0.049350 	4924 	0.048874
41.03 	0.051376 	4905 	0.050779
41.07 	0.051116 	4930 	0.050522
41.11 	0.052077 	4935 	0.051246
41.15 	0.054240 	4941 	0.052916
41.19 	0.051521 	4930 	0.050690
41.23 	0.050618 	4939 	0.049906
41.27 	0.052728 	4931 	0.052252
41.31 	0.056558 	4933 	0.055252
41.35 	0.050020 	4938 	0.049783
41.39 	0.052909 	4933 	0.052078
41.43 	0.050517 	4929 	0.049923
41.47 	0.042022 	4926 	0.041546
41.51 	0.045749 	4940 	0.045038
41.55 	0.050861 	4935 	0.050268
41.59 	0.053923 	4933 	0.053329
41.63 	0.047388 	4938 	0.046913
41.67 	0.046761 	4940 	0.046149
41.71 	0.047831 	4934 	0.047594
41.75 	0.049097 	4929 	0.048127
41.79 	0.049960 	4944 	0.049604
41.83 	0.050122 	4928 	0.049527
41.87 	0.051469 	4935 	0.050757
41.91 	0.050041 	4936 	0.049328
41.95 	0.051308 	4931 	0.050595
41.99 	0.048522 	4905 	0.047925
42.03 	0.050820 	4939 	0.049515
42.07 	0.048410 	4937 	0.048054
42.11 	0.044489 	4945 	0.044016
42.15 	0.049818 	4938 	0.048987
42.19 	0.044214 	4908 	0.043975
42.23 	0.049877 	4892 	0.049398
42.27 	0.045548 	4874 	0.045187
42.31 	0.043254 	4855 	0.041907
42.35 	0.046714 	4838 	0.046350
42.39 	0.051624 	4804 	0.050628
42.43 	0.045492 	4792 	0.045248
42.47 	0.049108 	4765 	0.048125
42.51 	0.046806 	4743 	0.046435
42.55 	0.045455 	4708 	0.044708
42.59 	0.045041 	4729 	0.044298
42.63 	0.050117 	4709 	0.048977
42.67 	0.043766 	4684 	0.043141
42.71 	0.048896 	4663 	0.048519
42.75 	0.049383 	4617 	0.048368
42.79 	0.045177 	4582 	0.044644
42.83 	0.049824 	4536 	0.048791
42.87 	0.046232 	4499 	0.045581
42.91 	0.047801 	4456 	0.047143
42.95 	0.043252 	4416 	0.043119
42.99 	0.049031 	4385 	0.048363
43.03 	0.044773 	4333 	0.044232
43.07 	0.048417 	4296 	0.048008
43.11 	0.049354 	4255 	0.048665
43.15 	0.044698 	4206 	0.044420
43.19 	0.041249 	4194 	0.040551
43.23 	0.049591 	4154 	0.049591
43.27 	0.047747 	4105 	0.046462
43.31 	0.043883 	4079 	0.043165
43.35 	0.043899 	4032 	0.043318
43.39 	0.048976 	4002 	0.048536
43.43 	0.046465 	3960 	0.045873
43.47 	0.044376 	3921 	0.044227
43.51 	0.042301 	3877 	0.041999
43.55 	0.046896 	2964 	0.046698
43.59 	0.037801 	1746 	0.037465
43.63 	0.038961 	1001 	0.038961
43.67 	0.045817 	502 	0.045817
43.71 	0.037657 	239 	0.037657
43.75 	0.062500 	16 	0.062500