File: Example_Data/25SC_s1_0024.002.dat
#F C:\frames\spec\25SC_s1_0024.002
#C title =s:24 frm:2 25SC_s1
#C wavelength =0.15406

#S 1  fr_average C:\frames\spec\25SC_s1_0024.002 C:\win32app\speccom\mask.axs chi 0 180 0 360 0.02
#C 2 theta =0.000000 to 180 deg
#C   q   =0.000000 to 81.568 nm^-1
#C  chi  =0.000000 to 360 deg
#C collumns:
#C  1 position (2theta or chi in degrees)
#C  2 average intensity (sum of all counts in the region divided with number of pixels)
#C  3 Number of pixels in region)
#C  4 error (sum of sqrt(intensity) for all pixels divided by number)
#N 4
#L TTh  Int  N_pix  Err
32.99 	0.098361 	61 	0.098361
33.03 	0.058231 	1391 	0.057389
33.07 	0.058537 	2050 	0.057679
33.11 	0.049632 	2579 	0.048723
33.15 	0.063688 	2999 	0.062711
33.19 	0.061341 	3342 	0.060289
33.23 	0.055067 	3523 	0.053404
33.27 	0.058953 	3630 	0.057797
33.31 	0.055191 	3660 	0.054231
33.35 	0.059285 	3694 	0.057515
33.39 	0.063824 	3729 	0.063039
33.43 	0.061952 	3761 	0.061484
33.47 	0.054502 	3798 	0.053397
33.51 	0.061861 	3815 	0.060479
33.55 	0.065053 	3843 	0.063681
33.59 	0.051546 	3880 	0.050339
33.63 	0.057923 	3919 	0.056727
33.67 	0.057663 	3954 	0.056922
33.71 	0.061132 	3975 	0.060395
33.75 	0.063516 	3999 	0.062051
33.79 	0.057412 	4041 	0.056542
33.83 	0.062963 	4050 	0.061782
33.87 	0.064461 	4111 	0.063464
33.91 	0.057363 	4149 	0.056093
33.95 	0.060990 	4181 	0.059286
33.99 	0.055952 	4200 	0.055673
34.03 	0.053959 	4244 	0.052832
34.07 	0.055295 	4268 	0.054883
34.11 	0.058810 	4302 	0.057312
34.15 	0.051720 	4331 	0.051044
34.19 	0.056167 	4362 	0.055764
34.23 	0.058275 	4393 	0.057074
34.27 	0.057214 	4422 	0.056684
34.31 	0.054509 	4458 	0.053458
34.35 	0.058653 	4484 	0.057216
34.39 	0.055753 	4502 	0.054691
34.43 	0.059264 	4539 	0.058361
34.47 	0.060758 	4592 	0.059865
34.51 	0.058836 	4606 	0.058200
34.55 	0.055352 	4643 	0.054974
34.59 	0.060963 	4675 	0.059960
34.63 	0.054352 	4710 	0.053979
34.67 	0.052942 	4741 	0.051830
34.71 	0.054763 	4766 	0.054148
34.75 	0.057820 	4808 	0.057211
34.79 	0.061567 	4824 	0.060090
34.83 	0.057384 	4862 	0.056299
34.87 	0.059162 	4868 	0.058320
34.91 	0.061245 	4882 	0.060405
34.95 	0.054806 	4890 	0.053847
34.99 	0.059220 	4897 	0.057784
35.03 	0.055634 	4943 	0.054805
35.07 	0.061336 	4940 	0.059794
35.11 	0.062058 	4947 	0.060637
35.15 	0.049625 	4937 	0.048795
35.19 	0.054634 	4942 	0.053330
35.23 	0.053387 	4945 	0.052746
35.27 	0.062045 	4948 	0.061217
35.31 	0.056761 	4933 	0.055573
35.35 	0.057871 	4942 	0.056923
35.39 	0.057432 	4945 	0.056958
35.43 	0.054125 	4933 	0.053532
35.47 	0.053742 	4931 	0.052910
35.51 	0.055217 	4926 	0.054504
35.55 	0.059454 	4945 	0.057796
35.59 	0.056825 	4945 	0.055640
35.63 	0.059883 	4943 	0.059034
35.67 	0.057669 	4942 	0.056346
35.71 	0.056309 	4937 	0.055954
35.75 	0.055770 	4931 	0.054582
35.79 	0.060624 	4932 	0.059912
35.83 	0.056814 	4946 	0.056221
35.87 	0.054032 	4923 	0.052961
35.91 	0.061295 	4927 	0.060582
35.95 	0.061420 	4917 	0.060347
35.99 	0.059324 	4939 	0.058494
36.03 	0.060287 	4943 	0.059458
36.07 	0.057299 	4939 	0.057062
36.11 	0.063096 	4929 	0.061650
36.15 	0.061956 	4939 	0.060888
36.19 	0.053644 	4940 	0.052577
36.23 	0.056738 	4935 	0.055669
36.27 	0.058680 	4925 	0.057372
36.31 	0.057427 	4928 	0.055862
36.35 	0.055589 	4929 	0.054163
36.39 	0.062589 	4921 	0.061994
36.43 	0.064529 	4928 	0.063816
36.47 	0.052472 	4936 	0.051760
36.51 	0.057369 	4933 	0.056419
36.55 	0.057439 	4927 	0.056606
36.59 	0.061146 	4939 	0.060079
36.63 	0.056581 	4931 	0.055036
36.67 	0.059432 	4930 	0.058600
36.71 	0.055680 	4921 	0.055323
36.75 	0.057241 	4944 	0.055306
36.79 	0.056086 	4921 	0.055015
36.83 	0.059207 	4915 	0.058849
36.87 	0.052184 	4944 	0.051474
36.91 	0.057276 	4941 	0.056090
36.95 	0.059396 	4933 	0.058208
36.99 	0.051064 	4935 	0.050708
37.03 	0.052600 	4924 	0.051886
37.07 	0.057751 	4935 	0.056445
37.11 	0.055522 	4935 	0.054572
37.15 	0.051131 	4909 	0.050653
37.19 	0.054010 	4925 	0.052821
37.23 	0.052867 	4918 	0.051319
37.27 	0.051900 	4894 	0.051043
37.31 	0.054914 	4935 	0.054439
37.35 	0.055488 	4938 	0.054539
37.39 	0.053944 	4931 	0.052994
37.43 	0.048662 	4932 	0.047949
37.47 	0.058227 	4929 	0.057157
37.51 	0.053517 	4933 	0.052310
37.55 	0.053753 	4930 	0.053040
37.59 	0.053306 	4915 	0.052472
37.63 	0.052043 	4919 	0.051209
37.67 	0.054445 	4904 	0.053251
37.71 	0.057415 	4929 	0.056227
37.75 	0.054656 	4940 	0.053351
37.79 	0.052738 	4930 	0.051907
37.83 	0.052236 	4920 	0.051045
37.87 	0.050010 	4939 	0.049773
37.91 	0.051724 	4930 	0.050892
37.95 	0.059947 	4921 	0.058995
37.99 	0.058632 	4912 	0.058036
38.03 	0.052557 	4909 	0.051841
38.07 	0.052760 	4909 	0.052283
38.11 	0.055522 	4935 	0.054453
38.15 	0.050630 	4918 	0.050035
38.19 	0.056187 	4930 	0.055355
38.23 	0.055286 	4938 	0.054218
38.27 	0.060243 	4930 	0.058936
38.31 	0.059062 	4927 	0.057517
38.35 	0.062500 	4928 	0.062143
38.39 	0.058057 	4909 	0.056505
38.43 	0.061432 	4916 	0.060598
38.47 	0.063583 	4907 	0.062369
38.51 	0.060422 	4932 	0.058996
38.55 	0.067261 	4936 	0.065718
38.59 	0.063363 	4924 	0.062530
38.63 	0.062754 	4924 	0.061802
38.67 	0.059145 	4937 	0.057346
38.71 	0.062145 	4924 	0.061431
38.75 	0.054191 	4927 	0.053002
38.79 	0.061613 	4934 	0.060288
38.83 	0.057532 	4919 	0.056937
38.87 	0.051517 	4911 	0.050563
38.91 	0.050173 	4903 	0.049934
38.95 	0.051240 	4918 	0.049672
38.99 	0.049625 	4937 	0.048913
39.03 	0.048845 	4934 	0.048132
39.07 	0.048538 	4924 	0.047705
39.11 	0.044210 	4931 	0.043616
39.15 	0.049847 	4915 	0.048894
39.19 	0.048607 	4917 	0.048369
39.23 	0.046497 	4925 	0.046260
39.27 	0.048269 	4910 	0.047553
39.31 	0.043202 	4884 	0.042483
39.35 	0.044782 	4935 	0.043714
39.39 	0.043214 	4929 	0.042025
39.43 	0.047436 	4933 	0.046604
39.47 	0.040829 	4923 	0.040353
39.51 	0.049553 	4924 	0.049434
39.55 	0.045944 	4919 	0.045587
39.59 	0.044992 	4912 	0.044634
39.63 	0.046526 	4922 	0.045931
39.67 	0.048850 	4913 	0.048492
39.71 	0.044944 	4895 	0.044345
39.75 	0.045252 	4928 	0.044301
39.79 	0.047909 	4926 	0.047196
39.83 	0.046210 	4934 	0.045379
39.87 	0.049949 	4925 	0.049117
39.91 	0.044697 	4922 	0.044459
39.95 	0.048016 	4915 	0.047659
39.99 	0.049473 	4932 	0.048641
40.03 	0.048093 	4928 	0.047736
40.07 	0.043876 	4923 	0.043638
40.11 	0.044345 	4916 	0.043868
40.15 	0.043761 	4913 	0.042669
40.19 	0.045648 	4929 	0.045173
40.23 	0.041768 	4932 	0.040937
40.27 	0.044764 	4937 	0.044289
40.31 	0.042924 	4939 	0.042449
40.35 	0.043301 	4919 	0.042944
40.39 	0.048063 	4931 	0.047469
40.43 	0.046323 	4922 	0.045609
40.47 	0.050224 	4918 	0.049628
40.51 	0.042259 	4922 	0.041188
40.55 	0.041769 	4908 	0.041291
40.59 	0.042739 	4937 	0.042145
40.63 	0.047465 	4930 	0.046257
40.67 	0.045012 	4932 	0.044537
40.71 	0.047648 	4932 	0.046935
40.75 	0.041168 	4931 	0.041049
40.79 	0.041024 	4924 	0.040667
40.83 	0.045657 	4928 	0.044944
40.87 	0.047484 	4928 	0.047127
40.91 	0.043063 	4923 	0.042587
40.95 	0.046815 	4913 	0.045622
40.99 	0.042242 	4924 	0.042004
41.03 	0.044037 	4905 	0.043440
41.07 	0.044625 	4930 	0.044149
41.11 	0.041743 	4935 	0.041268
41.15 	0.039061 	4941 	0.038468
41.19 	0.043002 	4930 	0.042646
41.23 	0.040899 	4939 	0.040899
41.27 	0.039951 	4931 	0.039239
41.31 	0.037097 	4933 	0.036741
41.35 	0.043135 	4938 	0.042542
41.39 	0.041557 	4933 	0.040963
41.43 	0.041388 	4929 	0.041031
41.47 	0.038774 	4926 	0.038179
41.51 	0.041296 	4940 	0.040821
41.55 	0.039514 	4935 	0.039158
41.59 	0.039732 	4933 	0.039376
41.63 	0.041312 	4938 	0.040838
41.67 	0.037652 	4940 	0.037296
41.71 	0.044183 	4934 	0.043471
41.75 	0.039765 	4929 	0.039052
41.79 	0.045105 	4944 	0.044019
41.83 	0.041193 	4928 	0.040955
41.87 	0.043566 	4935 	0.042597
41.91 	0.040924 	4936 	0.040449
41.95 	0.038735 	4931 	0.038497
41.99 	0.041590 	4905 	0.040874
42.03 	0.041709 	4939 	0.041353
42.07 	0.036257 	4937 	0.036138
42.11 	0.040040 	4945 	0.039448
42.15 	0.042932 	4938 	0.042339
42.19 	0.035249 	4908 	0.035010
42.23 	0.035364 	4892 	0.035124
42.27 	0.040624 	4874 	0.039302
42.31 	0.037281 	4855 	0.036678
42.35 	0.036999 	4838 	0.036757
42.39 	0.038093 	4804 	0.037971
42.43 	0.040067 	4792 	0.039578
42.47 	0.035257 	4765 	0.034888
42.51 	0.038372 	4743 	0.037878
42.55 	0.039720 	4708 	0.039471
42.59 	0.034468 	4729 	0.033973
42.63 	0.039074 	4709 	0.038452
42.67 	0.036721 	4684 	0.036346
42.71 	0.042033 	4663 	0.041656
42.75 	0.034221 	4617 	0.034094
42.79 	0.041903 	4582 	0.041775
42.83 	0.039021 	4536 	0.039021
42.87 	0.038231 	4499 	0.037970
42.91 	0.037478 	4456 	0.037193
42.95 	0.040534 	4416 	0.039739
42.99 	0.042645 	4385 	0.041977
43.03 	0.035772 	4333 	0.034939
43.07 	0.036778 	4296 	0.036506
43.11 	0.044888 	4255 	0.044751
43.15 	0.039705 	4206 	0.039427
43.19 	0.040534 	4194 	0.039975
43.23 	0.037313 	4154 	0.036749
43.27 	0.031425 	4105 	0.030997
43.31 	0.038000 	4079 	0.037856
43.35 	0.031994 	4032 	0.031849
43.39 	0.037981 	4002 	0.037688
43.43 	0.039394 	3960 	0.038802
43.47 	0.039531 	3921 	0.038933
43.51 	0.038432 	3877 	0.038130
43.55 	0.039811 	2964 	0.039416
43.59 	0.039519 	1746 	0.039183
43.63 	0.031968 	1001 	0.031968
43.67 	0.035857 	502 	0.035857
43.71 	0.025105 	239 	0.025105
43.75 	0.062500 	16 	0.062500